Fp1 Fz F3 F7 FT9 FC5 FC1 C3 T7 TP9 CP5 CP1 Pz P3 P7 O1 Oz O2 P4 P8 TP10 CP6 CP2 Cz C4 T8 FT10 FC6 FC2 F4 F8 Fp2 HEOG
2.970684363390319e-05 2.3167343897512183e-05 2.5477898816461675e-05 2.7447207685327157e-05 4.850028744840529e-06 2.2743861336493865e-05 1.9652694390970282e-05 2.0771183699253015e-05 1.579008312546648e-05 1.819043973227963e-05 1.796288779587485e-05 2.256088009744417e-05 2.3029255316942e-05 1.9736235117306933e-05 1.653232357057277e-05 2.59844891843386e-05 2.6811134375748225e-05 4.667299799621105e-05 2.7352214601705782e-05 3.710828605107963e-05 2.1257965272525325e-05 2.715797927521635e-05 2.2265043298830278e-05 1.8864207959268242e-05 3.0003524443600327e-05 2.98265294986777e-05 2.0597797629307024e-05 3.6163812183076516e-05 2.5071072741411626e-05 2.446617145324126e-05 2.6069474188261665e-05 1.2977084224985447e-05 0.0004536353808362037
2.9647964765899815e-05 2.2804169930168428e-05 2.5140427169390023e-05 2.7272672014078125e-05 4.736585196951637e-06 2.3037568098516203e-05 1.9200419046683237e-05 2.0453724573599175e-05 1.569347659824416e-05 1.692114892648533e-05 1.749476359691471e-05 2.213661718997173e-05 2.3103015337255783e-05 1.9226708900532685e-05 1.5511261153733358e-05 2.59251373790903e-05 2.714516631385777e-05 4.996966526960023e-05 2.7554422558750957e-05 3.7453504774020985e-05 2.0934605345246382e-05 2.7214899091632105e-05 2.2126620024209842e-05 1.8411143173580058e-05 3.009869033121504e-05 3.0358998628798872e-05 2.0434406906133518e-05 3.694460974656977e-05 2.4942197342170402e-05 2.4958737412816845e-05 2.730300184339285e-05 1.3126055819157045e-05 0.0004441731725819409
2.9551199986599386e-05 2.2487602109322324e-05 2.4893202862585895e-05 2.712798595894128e-05 4.625288966053631e-06 2.3320209947996773e-05 1.880445415736176e-05 2.0181603758828714e-05 1.5484127288800664e-05 1.551864443172235e-05 1.702641020528972e-05 2.1714953618356958e-05 2.3070504539646208e-05 1.8640808775671758e-05 1.4364433809532784e-05 2.5654038836364634e-05 2.7241185307502747e-05 5.238864468992688e-05 2.750978273979854e-05 3.7528621760429814e-05 2.0291128748795018e-05 2.7014095394406468e-05 2.186181336583104e-05 1.7967749954550527e-05 3.0020375561434776e-05 3.059176015085541e-05 1.9955923562520184e-05 3.745774301933125e-05 2.476633744663559e-05 2.5330033167847432e-05 2.8436545107979327e-05 1.3236071026767604e-05 0.00039379429654218256
2.9441112928907387e-05 2.2253367205848917e-05 2.475634937582072e-05 2.6984285796061158e-05 4.517481102084275e-06 2.356959885219112e-05 1.8503309547668323e-05 1.9978002455900423e-05 1.5158846508711576e-05 1.408738080499461e-05 1.6596755813225172e-05 2.132621011696756e-05 2.2936646928428672e-05 1.801840880943928e-05 1.3164191841497086e-05 2.5187306164298207e-05 2.7091467927675694e-05 5.3765190386911854e-05 2.7220645279157907e-05 3.731163087650202e-05 1.934575084305834e-05 2.6565992811811157e-05 2.1486046534846537e-05 1.756238089001272e-05 2.97639962809626e-05 3.0493634767481126e-05 1.9171331587131135e-05 3.7667883589165285e-05 2.45640712819295e-05 2.5576853659003973e-05 2.937678073067218e-05 1.3299821148393676e-05 0.00030255966703407466
2.933583346020896e-05 2.2132304366095923e-05 2.4741133529460058e-05 2.6800766136148013e-05 4.406615062180208e-06 2.3761438569636084e-05 1.8329699742025696e-05 1.9858835003105924e-05 1.4711062249261886e-05 1.2727670764434151e-05 1.6235837392741814e-05 2.0997207684558816e-05 2.2708263713866472e-05 1.7396532712155022e-05 1.1980944691458717e-05 2.4545679480070248e-05 2.669561763468664e-05 5.3977666539140046e-05 2.669651439646259e-05 3.678979555843398e-05 1.812913797039073e-05 2.5888535674312152e-05 2.101742211380042e-05 1.7220510926563293e-05 2.9331182304304093e-05 3.005027429026086e-05 1.810519097489305e-05 3.755299258045852e-05 2.4354829292860813e-05 2.570000651758164e-05 3.003333040396683e-05 1.3309764653968159e-05 0.0001738624123390764
2.9249520594021305e-05 2.2154647012939677e-05 2.485670665919315e-05 2.6539459213381633e-05 4.285431714379229e-06 2.387911627010908e-05 1.831536974350456e-05 1.984009395528119e-05 1.4140287930786144e-05 1.1537300451891497e-05 1.5971570974215865e-05 2.0757144739036448e-05 2.2400805391953327e-05 1.681461617408786e-05 1.0886770724027883e-05 2.3761760530760512e-05 2.6069248633575626e-05 5.29658209416084e-05 2.5961488063330762e-05 3.5969223972642794e-05 1.6691265045665205e-05 2.501379458408337e-05 2.0484007109189406e-05 1.6971338482107967e-05 2.873774428735487e-05 2.927537752839271e-05 1.6804882761789486e-05 3.7113095459062606e-05 2.416331881249789e-05 2.5710718546179123e-05 3.0332566893775947e-05 1.3264500921650324e-05 1.4587663827114739e-05
2.918789687100798e-05 2.2342574084177613e-05 2.5105560780502856e-05 2.616714482428506e-05 4.143486876273528e-06 2.391138332313858e-05 1.848415740823839e-05 1.993179103010334e-05 1.3451433915179223e-05 1.059959231497487e-05 1.582253389642574e-05 2.0628916900022887e-05 2.2033154891687445e-05 1.6306390534737147e-05 9.94523179542739e-06 2.287181450810749e-05 2.5237588488380425e-05 5.073362626717426e-05 2.504815347492695e-05 3.487083449726924e-05 1.509389858256327e-05 2.3980681362445466e-05 1.991651879507117e-05 1.6839032468851656e-05 2.800678885250818e-05 2.820349072862882e-05 1.5332170733017847e-05 3.636445035226643e-05 2.401273923169356e-05 2.5623961846577004e-05 3.0216928280424327e-05 1.3162621144147124e-05 -0.0001658528344705701
2.9145336156943813e-05 2.2706668460159563e-05 2.5481002012384124e-05 2.5654870114522055e-05 3.969795670855092e-06 2.385166044405196e-05 1.8847471437766217e-05 2.0134515580139123e-05 1.2654653801291715e-05 9.977167792385444e-06 1.5795687431818806e-05 2.0626859623007476e-05 2.162433520425111e-05 1.5896201148279943e-05 9.20587444852572e-06 2.191085513914004e-05 2.423133992124349e-05 4.734385584015399e-05 2.3994116418180056e-05 3.352635394548997e-05 1.3406660400505643e-05 2.2832839022157714e-05 1.9344290194567293e-05 1.684001472312957e-05 2.7166774088982493e-05 2.6884601538768038e-05 1.3758449313172605e-05 3.533708513714373e-05 2.3919948944239877e-05 2.5454706701566465e-05 2.9648592317244038e-05 1.3003321328142192e-05 -0.00035617881803773344
2.910741386585869e-05 2.324608612980228e-05 2.5968929548980668e-05 2.498555477359332e-05 3.7512068047362845e-06 2.3699683879385702e-05 1.940438050951343e-05 2.044065149675589e-05 1.1765789167839102e-05 9.70462406257866e-06 1.5886344044702128e-05 2.07555294764461e-05 2.1192927306401543e-05 1.5597524907207116e-05 8.70187705004355e-06 2.0912370018777438e-05 2.308582770638168e-05 4.291698132874444e-05 2.2840262317913584e-05 3.1976473110262305e-05 1.170045379694784e-05 2.1614616343867965e-05 1.8794473362504505e-05 1.698191226751078e-05 2.6250456357956864e-05 2.5380861188750714e-05 1.2157942364865448e-05 3.407492476981133e-05 2.3896049242466688e-05 2.5218683731509373e-05 2.8619551812880673e-05 1.2788070307578892e-05 -0.000544241105671972
2.9055245249764994e-05 2.395036608504597e-05 2.6553265342954546e-05 2.41627585637616e-05 3.4803233575075865e-06 2.346602013858501e-05 2.014471829170361e-05 2.083851541101467e-05 1.0814868801389821e-05 9.791892807697877e-06 1.6083889931906015e-05 2.1013831428717822e-05 2.0760673578479327e-05 1.541732308396604e-05 8.452616384602152e-06 1.9912269635824487e-05 2.1846173694939353e-05 3.7636262277374044e-05 2.163366116292309e-05 3.0275725293904543e-05 1.004857404041104e-05 2.037379272223916e-05 1.829476786952e-05 1.7266973372898065e-05 2.5296809326391667e-05 2.3766519007040188e-05 1.0608650882204529e-05 3.26361769111827e-05 2.3949209207785316e-05 2.4934442990343086e-05 2.715356276894454e-05 1.2522134056780487e-05 -0.0007181025575846434
2.8968728656764142e-05 2.4800439859973267e-05 2.7216248781769536e-05 2.321182364539709e-05 3.1593535823049024e-06 2.317131838935893e-05 2.104870873154141e-05 2.1313402612577192e-05 9.846698048932012e-06 1.0226774975308217e-05 1.6373312973883003e-05 2.1393871065811254e-05 2.0350511476863176e-05 1.5355873983935453e-05 8.463950507575646e-06 1.8944851035485044e-05 2.0562280042213388e-05 3.173162622260861e-05 2.0424504327820614e-05 2.8488964744610712e-05 8.52296216180548e-06 1.9159962903358974e-05 1.7871123418444768e-05 1.769087066350039e-05 2.4348450097022578e-05 2.2122358132037334e-05 9.187214345729444e-06 3.1090508855413646e-05 2.4083166863420047e-05 2.4622057026135735e-05 2.530661913624499e-05 1.2216500181239098e-05 -0.0008668575901538134
2.8831776944571175e-05 2.577167470008135e-05 2.7941554435528815e-05 2.2181737222126685e-05 2.8018801003781846e-06 2.2847742002340965e-05 2.2090809579822235e-05 2.1850837583770044e-05 8.920921573007945e-06 1.0978131285810377e-05 1.673880615271628e-05 2.188386133639142e-05 1.9987668565590866e-05 1.540912126074545e-05 8.729813998797908e-06 1.804528437787667e-05 1.929067548189778e-05 2.5468756575719453e-05 1.92659608728718e-05 2.668789056770038e-05 7.192681550804991e-06 1.802287260943558e-05 1.7548121832078323e-05 1.8245154933538288e-05 2.345105167478323e-05 2.0533452698145993e-05 7.967363671923522e-06 2.9516546419472434e-05 2.429974301776383e-05 2.4303670215886086e-05 2.3166181563283317e-05 1.188938222185243e-05 -0.000981448101811111
2.8628212021430954e-05 2.682772174011916e-05 2.8708720492431894e-05 2.113670234393794e-05 2.4275343548652017e-06 2.253081402159296e-05 2.323338412679732e-05 2.2430967874242924e-05 8.102737410808913e-06 1.199107282445766e-05 1.7158983609988354e-05 2.246248914161697e-05 1.969029108295217e-05 1.5562512999167666e-05 9.227033842762467e-06 1.7240232409676537e-05 1.808164051908534e-05 1.9125243852613494e-05 1.8202981664217077e-05 2.4941024094005115e-05 6.113485142122954e-06 1.7002297681756318e-05 1.734042598400265e-05 1.8909653590526432e-05 2.2643829652224667e-05 1.907413752633147e-05 7.007824024185538e-06 2.7989097361569293e-05 2.4590832254034467e-05 2.399452932877466e-05 2.083674189634621e-05 1.155852987722028e-05 -0.001055584754794836
2.8342030418571085e-05 2.7921338187297806e-05 2.9491553505067714e-05 2.0149338524788618e-05 2.056449147858075e-06 2.2253761926549487e-05 2.4426932213827968e-05 2.302741995663382e-05 7.455074410245288e-06 1.3189885976316873e-05 1.7606962501304224e-05 2.3097705707186833e-05 1.9467135643935762e-05 1.5790637917234562e-05 9.914504516927991e-06 1.6544674508622847e-05 1.6976493498077616e-05 1.297724975302117e-05 1.726970549498219e-05 2.3307966330321506e-05 5.320862783264602e-06 1.612567575648427e-05 1.724973481032066e-05 1.965260526048951e-05 2.195430533902254e-05 1.780165985110216e-05 6.345713245536899e-06 2.657326876942534e-05 2.493674764991738e-05 2.370105721638538e-05 1.843355130404234e-05 1.1238316801609471e-05 -0.0010859991889446974
2.7966505513177253e-05 2.9003571398789063e-05 3.02664702758193e-05 1.9302422515465878e-05 1.7146913933174801e-06 2.2052658096072264e-05 2.5620520318625495e-05 2.3616503312950954e-05 7.040944183245301e-06 1.4491351976175793e-05 1.805856118153315e-05 2.375592157477513e-05 1.9323844753671438e-05 1.6065792806330137e-05 1.074283954949351e-05 1.5969104424584657e-05 1.6012050764402375e-05 7.29013345335261e-06 1.6494184819748625e-05 2.184403820137959e-05 4.834505034523318e-06 1.5413379514939152e-05 1.7272286640945822e-05 2.0439238141989335e-05 2.1404326616902836e-05 1.675860221439507e-05 6.002307145536179e-06 2.5328019546577707e-05 2.5314548111055046e-05 2.34279523283476e-05 1.6082289221230894e-05 1.0946077054541092e-05 -0.0010725249303504825
2.75009388133185e-05 3.0019309633644298e-05 3.100574394920841e-05 1.8674279999686405e-05 1.425520622433396e-06 2.195730667153839e-05 2.675690302567091e-05 2.417039286228828e-05 6.910255706316093e-06 1.5802299458300695e-05 1.8486993212718517e-05 2.439694981148932e-05 1.9255681763752364e-05 1.635434637137223e-05 1.1651022759906482e-05 1.5512443496845663e-05 1.5211411664495245e-05 2.2951662685954943e-06 1.5889421774772927e-05 2.0589601263054647e-05 4.651797553378856e-06 1.4870565792080015e-05 1.7391741494066082e-05 2.122539262927603e-05 2.1001804270781577e-05 1.596385845914483e-05 5.974379746476188e-06 2.4295790353789926e-05 2.5693056159070693e-05 2.3171249267761596e-05 1.3902567843615543e-05 1.0694764569052495e-05 -0.0010179933160543442
2.6953646738547832e-05 3.091699909418821e-05 3.1684285204391927e-05 1.833716123655904e-05 1.2114036280763685e-06 2.1993930204189382e-05 2.7782141842180863e-05 2.4665836463100277e-05 7.0995783971739e-06 1.7033173207892105e-05 1.887045436888002e-05 2.4983319235616364e-05 1.92538027476985e-05 1.662345130171161e-05 1.2576150766108185e-05 1.5168579011515249e-05 1.4589841157430783e-05 -1.8137691313313553e-06 1.546033308841288e-05 1.9575163605622947e-05 4.752745553560089e-06 1.4493824892269913e-05 1.758650250849314e-05 2.1967480279272422e-05 2.0745119400089607e-05 1.5416710084537044e-05 6.2403319134318735e-06 2.3504713681177236e-05 2.6039360818685964e-05 2.2923863070900552e-05 1.2003433766949456e-05 1.0496130016690586e-05 -0.0009279345977120101
2.6345745936851017e-05 3.165342059219256e-05 3.228357672924176e-05 1.835137118177954e-05 1.0942158041871153e-06 2.2184905901667662e-05 2.8651167667703703e-05 2.508778743504081e-05 7.629869287484325e-06 1.8106537027051672e-05 1.919581882248167e-05 2.548382690292783e-05 1.9308017726871185e-05 1.6847623555804603e-05 1.3460052286973223e-05 1.4929784811101854e-05 1.4155164535623044e-05 -4.890286163572455e-06 1.5204462215478998e-05 1.8822103811544366e-05 5.104921456222655e-06 1.4274400200520176e-05 1.7833539459388703e-05 2.2627340513281524e-05 2.062619932985399e-05 1.5099070878932253e-05 6.7646160459844396e-06 2.29699035116937e-05 2.6324665668653324e-05 2.267914533149451e-05 1.0478527656232473e-05 1.0361798558733426e-05 -0.0008100321865640581
2.5708641260280274e-05 3.2195268431678414e-05 3.278826625319198e-05 1.8758373698801734e-05 1.0917914323727018e-06 2.2544494640897028e-05 2.9328721211641096e-05 2.5427147193113342e-05 8.497379894834012e-06 1.8960070519824512e-05 1.9456636437098496e-05 2.587477683846373e-05 1.940561196533963e-05 1.7007070709951222e-05 1.4250595995690674e-05 1.4784905943088233e-05 1.3906038475397509e-05 -6.845958978374256e-06 1.5111662833078299e-05 1.833962232922204e-05 5.6644953474460635e-06 1.419676118530333e-05 1.810795220080763e-05 2.3172064175014384e-05 2.063059037027415e-05 1.4977766113588586e-05 7.500093488488346e-06 2.269275501021184e-05 2.6523613996687345e-05 2.2430705939768814e-05 9.400307135365438e-06 1.0301828297087923e-05 -0.0006732826004736125
2.5078705220948905e-05 3.251933594583534e-05 3.318709786981344e-05 1.9571920347516425e-05 1.2120125347792055e-06 2.3075899662217125e-05 2.9789889595122077e-05 2.5680381440906785e-05 9.67274718277622e-06 1.954998151632026e-05 1.9651693946798332e-05 2.6140045520151034e-05 1.9531713405740447e-05 1.708860872895457e-05 1.4903585906722583e-05 1.4720145372848492e-05 1.3831368960381951e-05 -7.65380809752969e-06 1.516311112936819e-05 1.8125261703971773e-05 6.37702669337159e-06 1.423914909537416e-05 1.8383580027148128e-05 2.3575863451696932e-05 2.073531322821509e-05 1.5005431123427115e-05 8.387800335185602e-06 2.265868715767283e-05 2.661431790329516e-05 2.2171543605509214e-05 8.81057985679945e-06 1.0321897207177244e-05 -0.0005272987182252109
2.4493008822901174e-05 3.261287201894447e-05 3.347029269207269e-05 2.0773570213350467e-05 1.4498612017632695e-06 2.3769303879817016e-05 3.0020071790204383e-05 2.584767025837209e-05 1.1103023098257836e-05 1.9851719116559252e-05 1.9782550225500017e-05 2.6270108719472773e-05 1.966800664376933e-05 1.708501258690376e-05 1.5383227946585976e-05 1.4716899386257865e-05 1.3908947039453778e-05 -7.351360181928612e-06 1.5331688700825907e-05 1.8163296772399917e-05 7.179412932600826e-06 1.4373066733242013e-05 1.863320176198613e-05 2.381873673584778e-05 2.090975067403633e-05 1.5123825505725108e-05 9.362099262943957e-06 2.2836380594526418e-05 2.6578667529975064e-05 2.1892456061323173e-05 8.714002433407586e-06 1.0419831596664153e-05 -0.0003811574133578688
2.398595643171575e-05 3.247158383601345e-05 3.362814095453359e-05 2.2311685825116e-05 1.7848805100584286e-06 2.4600638425908983e-05 3.001379627676215e-05 2.5930961783160456e-05 1.2709393558907323e-05 1.9857046936522238e-05 1.985156995942816e-05 2.6260982849635184e-05 1.979275475605391e-05 1.699276253930293e-05 1.5662299119867384e-05 1.4752699826203752e-05 1.4105706213740632e-05 -6.0360571296769194e-06 1.558157237013802e-05 1.8425202142680064e-05 8.002593858691398e-06 1.4563499462383334e-05 1.882881588244345e-05 2.388652865192853e-05 2.111681351379957e-05 1.526645792182535e-05 1.0351728633395396e-05 2.318058250239119e-05 2.6402323783258907e-05 2.1582958652288653e-05 9.07943285710644e-06 1.0585237760096788e-05 -0.00024289710563607514
2.3592028810526244e-05 3.210740760550834e-05 3.3657794119790196e-05 2.4110016966005787e-05 2.190151462855283e-06 2.5537532565067522e-05 2.9782670026179403e-05 2.5941109925042838e-05 1.4396844562725164e-05 1.9581704691518098e-05 1.9869126845151186e-05 2.6122179406229407e-05 1.9890083422069438e-05 1.6820904420455918e-05 1.5730260201962665e-05 1.4810144421062432e-05 1.4388124327524565e-05 -3.8479756767628714e-06 1.5879062630119734e-05 1.8878543414757587e-05 8.784158126218244e-06 1.4779701814404689e-05 1.8950906451209448e-05 2.3780270566930994e-05 2.1322759494069032e-05 1.5371957488241605e-05 1.1291209375485778e-05 2.364240754104685e-05 2.608278919069562e-05 2.1239349734969437e-05 9.851368304225616e-06 1.0806110367411748e-05 -0.00011936514056287706
2.3344244254985824e-05 3.155061858706176e-05 3.3565116609679535e-05 2.6073255867231637e-05 2.635557166286162e-06 2.6542462364886887e-05 2.935624615929555e-05 2.5898652893374674e-05 1.6062143913586624e-05 1.9065419110120274e-05 1.9853187041007914e-05 2.5878061933326535e-05 1.995308412006125e-05 1.6591189705650322e-05 1.559512566018384e-05 1.4879366972309072e-05 1.4726572771905921e-05 -9.593373988536769e-07 1.6196912838495336e-05 1.9493591025820933e-05 9.474646503804252e-06 1.4999479390098713e-05 1.8993165213032626e-05 2.351704824832268e-05 2.1502406525542028e-05 1.5392288332805037e-05 1.2129993592679966e-05 2.417570249235723e-05 2.5632412871345878e-05 2.086673521262128e-05 1.0955485777230933e-05 1.1072037523263134e-05 -1.5253513993229717e-05
2.3264819901669398e-05 3.083953197347e-05 3.335827568662353e-05 2.808666613418609e-05 3.0828323360765353e-06 2.7570098609430715e-05 2.8772967198165134e-05 2.5824225303949788e-05 1.7595035387785174e-05 1.83614556590328e-05 1.982118556043133e-05 2.5558634661138058e-05 1.997687650145963e-05 1.632876410440076e-05 1.5277126294677146e-05 1.4950780496292282e-05 1.508864534116583e-05 2.4263183604489313e-06 1.6507276086485945e-05 2.023528577410616e-05 1.0032437785412185e-05 1.5201518181129359e-05 1.895392415462993e-05 2.312175274710171e-05 2.163297358492855e-05 1.528832217445597e-05 1.2824890291085467e-05 2.4730550649110228e-05 2.506962846382521e-05 2.0471057723625563e-05 1.2291929124330636e-05 1.136712307925336e-05 6.690401642117649e-05
2.336943543923553e-05 3.0025294108781964e-05 3.305457721580751e-05 3.0033914299565367e-05 3.496153567539295e-06 2.8576298063853756e-05 2.808369208651129e-05 2.5744955564732663e-05 1.8896138499258086e-05 1.7536416635266505e-05 1.9794928448391147e-05 2.5203547920682468e-05 1.9966308173025027e-05 1.606820478627924e-05 1.4812514564255252e-05 1.502338818681892e-05 1.545010854897555e-05 6.0966972341702785e-06 1.679251727182418e-05 2.107362888636999e-05 1.0434378964419011e-05 1.5375091606983915e-05 1.8843884390662424e-05 2.263245369249489e-05 2.1702728190575726e-05 1.5041140613902826e-05 1.3351917004911229e-05 2.526628850318957e-05 2.4425618903478608e-05 2.0067605873919092e-05 1.3754967767454218e-05 1.1677417205646634e-05 0.00012663006782531738
2.366198896197602e-05 2.916375524364412e-05 3.267364081693813e-05 3.179909253958613e-05 3.841056241071783e-06 2.9515649657696486e-05 2.7344736736267805e-05 2.5687280867714435e-05 1.987812174775172e-05 1.6662374036968686e-05 1.979504304472357e-05 2.4856195523170754e-05 1.9930375856347382e-05 1.584553137945477e-05 1.4246521459426731e-05 1.5100871678441763e-05 1.579241688887123e-05 9.839181075221859e-06 1.703975249256473e-05 2.1979594748700038e-05 1.0670086339814588e-05 1.5515477571170777e-05 1.868051003839355e-05 2.209362355642952e-05 2.1707843188778497e-05 1.464809520257404e-05 1.3699241208087187e-05 2.5748495318111964e-05 2.373772622377146e-05 1.9674016584758647e-05 1.5234733837132808e-05 1.1987765901722014e-05 0.00016512307047378272
2.413117363175843e-05 2.830968878697604e-05 3.223502790206112e-05 3.3272543078055605e-05 4.086996341357008e-06 3.0340665034600534e-05 2.6610872737364843e-05 2.5673420168459415e-05 2.0473478798521683e-05 1.581122342031449e-05 1.983777474379167e-05 2.4556877178838477e-05 1.987979339901358e-05 1.5693236491642892e-05 1.3628538908960763e-05 1.5186366908892523e-05 1.609828177606687e-05 1.3445125659927726e-05 1.7239430235349573e-05 2.2922731659491546e-05 1.0740740435721818e-05 1.562138095323462e-05 1.8485003238311037e-05 2.155045331164729e-05 2.165002479159739e-05 1.412209530826658e-05 1.3866527297068387e-05 2.6148967663175426e-05 2.3044536646921188e-05 1.930672260641586e-05 1.6623112969682552e-05 1.2280740520509426e-05 0.00018475239630788565
2.4752735043875873e-05 2.7514155590324663e-05 3.175863457727246e-05 3.4364227758487687e-05 4.2103683881578036e-06 3.100834146607667e-05 2.593291901575867e-05 2.572022276581265e-05 2.0644280084525235e-05 1.5045224245113786e-05 1.9934741430915892e-05 2.4341194148291834e-05 1.9826056814054027e-05 1.5638808690709993e-05 1.3008592759433668e-05 1.528239772596862e-05 1.635503394936677e-05 1.6725296518416144e-05 1.7386550098308362e-05 2.3873973987065256e-05 1.0660816769814119e-05 1.5695839465479366e-05 1.828073618526105e-05 2.1047106201876886e-05 2.1537402062676847e-05 1.3495332495949697e-05 1.3864927495887969e-05 2.6447612981428392e-05 2.23849910980789e-05 1.8980945242219605e-05 1.7822125300881453e-05 1.253848404303426e-05 0.0001887973485281691
2.5495202862657607e-05 2.6823867301573046e-05 3.126571755274199e-05 3.5013395972782746e-05 4.200633611617377e-06 3.148403266095556e-05 2.5357885533594526e-05 2.5840879970928654e-05 2.038804996118415e-05 1.4417400052479934e-05 2.0095139916520566e-05 2.424061494821217e-05 1.978556247195229e-05 1.5705641999375075e-05 1.2438127669156529e-05 1.5396628441521898e-05 1.6559648429392837e-05 1.9529566998244263e-05 1.748446811689064e-05 2.480894727341365e-05 1.0457872122060508e-05 1.574898124090396e-05 1.809483910619747e-05 2.0626217519748025e-05 2.1386500520748086e-05 1.2816693924833089e-05 1.3716614375880454e-05 2.6636729671736248e-05 2.179812145186588e-05 1.871217682491988e-05 1.8753684344119392e-05 1.2746857464662753e-05 0.00018076070409733802
2.632158066262491e-05 2.6280380552634597e-05 3.0780873203184456e-05 3.5193428630009294e-05 4.063465894432738e-06 3.174631274305284e-05 2.4927290724008344e-05 2.6046465791296214e-05 1.9742463337024674e-05 1.3970675354357809e-05 2.0327108359197155e-05 2.428248626529239e-05 1.977839565370232e-05 1.591290856595151e-05 1.1968046237598173e-05 1.5541396351181902e-05 1.671972313488368e-05 2.17515516851563e-05 1.7546082744956948e-05 2.571162440290209e-05 1.017224076349521e-05 1.5798843378433958e-05 1.7957772797672078e-05 2.0328179743955843e-05 2.1223364456091076e-05 1.2150572729296982e-05 1.3454514373734128e-05 2.6721325411926955e-05 2.1322421162039973e-05 1.851620436355006e-05 1.9364271793165244e-05 1.2896863154310267e-05 0.00016378566215280443
2.7194026188226417e-05 2.5918414394254796e-05 3.033243046957068e-05 3.491788447718136e-05 3.822470262093702e-06 3.179131090291776e-05 2.4675799068063498e-05 2.634597331052646e-05 1.8785060092341155e-05 1.3736410437559243e-05 2.0639054127968848e-05 2.448923078191001e-05 1.9829109078273177e-05 1.6275558664347045e-05 1.1646527127595618e-05 1.5733687177998945e-05 1.685306961007882e-05 2.333226439077407e-05 1.7593158190720715e-05 2.657256663951557e-05 9.854005838860758e-06 1.5871075447648764e-05 1.7902650142787024e-05 2.0190165741951205e-05 2.1082167222630233e-05 1.157415044872323e-05 1.3119673894834705e-05 2.6720454116002657e-05 2.099527046084404e-05 1.84095224540215e-05 1.9630879251053557e-05 1.298813549510669e-05 0.00014032117906026542
2.8071812266716734e-05 2.5757786715985276e-05 2.9942912078695372e-05 3.423099042265676e-05 3.511162503855303e-06 3.1624731491319835e-05 2.4622626369819045e-05 2.6739777240436524e-05 1.761852399795316e-05 1.3727397345064674e-05 2.1032106815255247e-05 2.486816629243549e-05 1.99568039533915e-05 1.67952457559295e-05 1.1508869647514075e-05 1.598550079506822e-05 1.6978889107122086e-05 2.42543283093255e-05 1.7647587810643017e-05 2.7381887775845826e-05 9.551307812216692e-06 1.599021561560221e-05 1.795505522750318e-05 2.02367427846184e-05 2.0996478269807994e-05 1.1164740499225445e-05 1.2751233043672983e-05 2.665822466951795e-05 2.0843401216552593e-05 1.8400598492007703e-05 1.955604602699168e-05 1.302131568081677e-05 0.00011186251504113898
2.8910117180203088e-05 2.5798999558901414e-05 2.9624094167957082e-05 3.320088580949232e-05 3.1681181553722126e-06 3.125935108982958e-05 2.4767721697571687e-05 2.721507553360425e-05 1.636122578929644e-05 1.3935242350271437e-05 2.1496829504030757e-05 2.541049980209209e-05 2.0171753931208514e-05 1.7458647562307306e-05 1.1573913070606068e-05 1.630253973416984e-05 1.7114518414018676e-05 2.454038622090593e-05 1.7728418242768385e-05 2.812739876389969e-05 9.307255822932348e-06 1.617614361748565e-05 1.812875416362658e-05 2.0475172277656384e-05 2.0993642465327866e-05 1.0989989277732093e-05 1.2379984582366887e-05 2.6558072931948118e-05 2.087749817292206e-05 1.848721512942575e-05 1.916149994940497e-05 1.2996469195059035e-05 7.850727706681937e-05
2.967183172586374e-05 2.60324541159207e-05 2.9387263566604815e-05 3.192679287167266e-05 2.8434085379558383e-06 3.0723720556125045e-05 2.5100569473579526e-05 2.7756699637393467e-05 1.5144866665650625e-05 1.4338042092276737e-05 2.202150790253654e-05 2.609902549011167e-05 2.0482928448473103e-05 1.8245487808599137e-05 1.184850771096535e-05 1.668979530222714e-05 1.727978633425664e-05 2.42587902903324e-05 1.7857406419352628e-05 2.8802038286812603e-05 9.161982234218158e-06 1.6450032489956357e-05 1.8433629520586692e-05 2.090314774250146e-05 2.110083369188942e-05 1.1111917046946473e-05 1.203278407047037e-05 2.6448311473359354e-05 2.1100986486999318e-05 1.8663733499124646e-05 1.849387990660034e-05 1.291935950575862e-05 3.899327202816494e-05
3.032243148481939e-05 2.643185325723607e-05 2.9235536203486845e-05 3.051902604056522e-05 2.5868905595416436e-06 3.0053448426770046e-05 2.559486347308848e-05 2.8341373763396405e-05 1.4097160601522774e-05 1.4900923815730494e-05 2.258800668641925e-05 2.6902667741524056e-05 2.0890422092634253e-05 1.912335937959142e-05 1.2322911061346531e-05 1.7145745005109347e-05 1.7490930986241437e-05 2.35081315622665e-05 1.805110696295742e-05 2.9397539037745446e-05 9.144653631665278e-06 1.682714355411008e-05 1.88669055205537e-05 2.150335603801068e-05 2.1336774807423353e-05 1.1574886229936965e-05 1.1725407603080384e-05 2.6354182409704663e-05 2.150276668544393e-05 1.8914393876912072e-05 1.7613499949220568e-05 1.2794600479537621e-05 -8.95295033842558e-06
3.083805859205313e-05 2.6960793547914363e-05 2.9166247259126976e-05 2.909347676904872e-05 2.4441217192361364e-06 2.9290979000506923e-05 2.6213905584882013e-05 2.894170393119566e-05 1.3332344678929076e-05 1.5580335457343608e-05 2.3174025045591407e-05 2.7782220058725215e-05 2.1387873857747763e-05 2.00535032490734e-05 1.297387461818289e-05 1.7664518964011222e-05 1.776070894266013e-05 2.2410767996916547e-05 1.8322754840482958e-05 2.9905773772043176e-05 9.271647286368534e-06 1.7318374375463463e-05 1.9417542716837488e-05 2.2248270397540182e-05 2.1713551177526824e-05 1.2405201232468244e-05 1.1465369425422978e-05 2.6299017918063328e-05 2.2061703930376098e-05 1.921957482409198e-05 1.659378904150799e-05 1.2629977391043212e-05 -6.803748692618683e-05
3.120574547210708e-05 2.7578105800785124e-05 2.9174541850807145e-05 2.7765338018070906e-05 2.4567798391217366e-06 2.8487651434261352e-05 2.691608460736461e-05 2.9530849133152515e-05 1.2942409739480354e-05 1.6329431673511863e-05 2.3756630980642512e-05 2.8695107175735757e-05 2.1966467102174647e-05 2.099491211993154e-05 1.3767939890385605e-05 1.8237980839330703e-05 1.8099237422575243e-05 2.1109510271344334e-05 1.868364415713586e-05 3.032221684406977e-05 9.549463356961496e-06 1.7931586626218632e-05 2.0069432139280252e-05 2.3103941202862188e-05 2.2237407392822206e-05 1.3609960660687648e-05 1.1253335287619848e-05 2.630534982017707e-05 2.2750346033717506e-05 1.9558188796509057e-05 1.5517887732130475e-05 1.2437422810762655e-05 -0.00014113927318248898
3.14256212732289e-05 2.8240367100806907e-05 2.925322587543633e-05 2.663977829797659e-05 2.658465291460743e-06 2.7698952180799097e-05 2.7658039471134543e-05 3.008457861142233e-05 1.298954612138914e-05 1.7104233847931027e-05 2.4314653273904696e-05 2.959899757115636e-05 2.261467307107523e-05 2.190760824305471e-05 1.4664071386505384e-05 1.8858710973290727e-05 1.8514856492402032e-05 1.9763298041652888e-05 1.9143111785524525e-05 3.064774500671774e-05 9.975120519811753e-06 1.8671740690479055e-05 2.0802703147637658e-05 2.4032611690927297e-05 2.2908745449967682e-05 1.5174584405031055e-05 1.1084371180913877e-05 2.6392241124995053e-05 2.353674244659487e-05 1.9909621187252924e-05 1.4470245332631748e-05 1.2231382243044209e-05 -0.0002308089897269383
3.150762495351955e-05 2.890209543693345e-05 2.9390448617050424e-05 2.5799647119129077e-05 3.0671744752908126e-06 2.6978328605764546e-05 2.839433182089124e-05 3.057891080970876e-05 1.3494866834662389e-05 1.7864193068817258e-05 2.4824796128086746e-05 3.0450739359366708e-05 2.3315600628848188e-05 2.2752321456209756e-05 1.5614461517543532e-05 1.9515317035256885e-05 1.9008948584087193e-05 1.85265871550655e-05 1.970437733689323e-05 3.088511584792286e-05 1.0533563909120858e-05 1.9537341358955018e-05 2.159120049327612e-05 2.499207403161563e-05 2.371877599216532e-05 1.7062004189938307e-05 1.0947892405965831e-05 2.657024197105784e-05 2.438350384181831e-05 2.0251762180123478e-05 1.352752951788716e-05 1.2024885108985472e-05 -0.0003384562733117491
3.1469131499761716e-05 2.9517403163481504e-05 2.956880780402571e-05 2.5298209948232397e-05 3.680517920656712e-06 2.6371681087766774e-05 2.9078941224724986e-05 3.098983142990619e-05 1.4434514923777897e-05 1.8571703549241647e-05 2.5261433620471507e-05 3.120710243820213e-05 2.4045937607297674e-05 2.3489419618272223e-05 1.6563642930123024e-05 2.019004023168236e-05 1.9572007659007795e-05 1.753514152369462e-05 2.0360663256724365e-05 3.103493872913532e-05 1.1196674677194096e-05 2.0516186850727536e-05 2.240146386611741e-05 2.5935933081200346e-05 2.464678618707694e-05 1.9209755919291638e-05 1.0826191100932192e-05 2.6839912607101724e-05 2.5247514713555574e-05 2.0561130440910347e-05 1.2751353096973617e-05 1.1827793969132472e-05 -0.0004642039421014488
3.1329120247391984e-05 3.0042070648050867e-05 2.9766393708996475e-05 2.515019878046587e-05 4.472900855034823e-06 2.5913426725310273e-05 2.966774263768457e-05 3.1294042855734006e-05 1.5735584383946843e-05 1.9193876141798683e-05 2.5597446438041516e-05 3.182659565936774e-05 2.4775275960564613e-05 2.4081446099444292e-05 1.745206827763468e-05 2.08605906664161e-05 2.018532541114837e-05 1.6902888091863133e-05 2.1096609998494387e-05 3.109867247985676e-05 1.1924508726224303e-05 2.1586693037534133e-05 2.3195807443698868e-05 2.681582554941997e-05 2.566124385339208e-05 2.153248897229787e-05 1.0695704986574128e-05 2.7191315894015133e-05 2.6082472686539404e-05 2.0813993614865467e-05 1.2184785191493575e-05 1.1644547157629859e-05 -0.0006062971078790724
3.111365731456317e-05 3.044227560167201e-05 2.9963019187562168e-05 2.5337210900033824e-05 5.40313021701877e-06 2.56287821684964e-05 3.012643355759792e-05 3.1475698051508516e-05 1.7288666640524752e-05 1.971019992197398e-05 2.5811219529714435e-05 3.2278239814331755e-05 2.5474362701061182e-05 2.4501176085323095e-05 1.8226304746349342e-05 2.1504944015759975e-05 2.0826502804993652e-05 1.6712463548174128e-05 2.1892750737606548e-05 3.108121018158272e-05 1.2673302080656867e-05 2.272365236422047e-05 2.3939499442349188e-05 2.7590673198574223e-05 2.6726702344603837e-05 2.393260547250975e-05 1.0537159141676966e-05 2.7609710741671734e-05 2.684743594727479e-05 2.0993056750739925e-05 1.1854436706926208e-05 1.1479886779852677e-05 -0.0007609020103700459
3.0856179364491254e-05 3.069920785492286e-05 3.0144756237859838e-05 2.5815583285293542e-05 6.419640158128459e-06 2.553592639742419e-05 3.043566357519012e-05 3.1530322303297e-05 1.896075627882965e-05 2.0115339793846942e-05 2.5890554752550088e-05 3.2545496651437134e-05 2.6118550522369333e-05 2.4735909391893074e-05 1.8844802980311215e-05 2.2106585674919188e-05 2.147295708709862e-05 1.7014961485983804e-05 2.272868914587889e-05 3.099258537986316e-05 1.3402609511103947e-05 2.3900607629911974e-05 2.4605102225905284e-05 2.8230497264303267e-05 2.7808295271825045e-05 2.6308121960028075e-05 1.0339713298890274e-05 2.807968485285528e-05 2.7511428925208747e-05 2.109173874487169e-05 1.1773207006626762e-05 1.1341306162648834e-05 -0.0009223480592481792
3.058705260627903e-05 3.080268652411178e-05 3.02977114188252e-05 2.651078648341354e-05 7.455766990460688e-06 2.5636785721872002e-05 3.058382935705595e-05 3.145677692373283e-05 2.0596125978045166e-05 2.0409101125551388e-05 2.5825494958553463e-05 3.261902747908607e-05 2.6681158487917855e-05 2.4779339582892135e-05 1.9272089048172347e-05 2.264722206746228e-05 2.209646481787786e-05 1.781957507773768e-05 2.357634366489947e-05 3.0839990358799696e-05 1.40703450597357e-05 2.5082861611736007e-05 2.5166402338072658e-05 2.8710352125926875e-05 2.8865561034763232e-05 2.8549977287184447e-05 1.0096078767674044e-05 2.8578891942743212e-05 2.8046833904227242e-05 2.1107392967678607e-05 1.1932846064155456e-05 1.1231361895625014e-05 -0.0010832793777808547
3.0337640055222437e-05 3.0758572393096983e-05 3.0415820219786838e-05 2.7332702302373946e-05 8.442429134447593e-06 2.5924999135895632e-05 3.057475259993225e-05 3.126468800473958e-05 2.2038118913769722e-05 2.0604786186595447e-05 2.561696237535216e-05 3.2504376576980576e-05 2.7142586986883543e-05 2.463952660036739e-05 1.9489789337967522e-05 2.3115111616789363e-05 2.267280433443375e-05 1.909661659738049e-05 2.4408982426393777e-05 3.0635270377388224e-05 1.464195429434767e-05 2.623629552545026e-05 2.5606899725971743e-05 2.901861626014579e-05 2.986232539115008e-05 3.0556126148439944e-05 9.810539268073626e-06 2.9087039365549572e-05 2.8438802473829128e-05 2.1048736016382463e-05 1.2312821127125062e-05 1.1155438187415712e-05 -0.0012350344331935048
3.0133280233712867e-05 3.058235961361788e-05 3.049645238206722e-05 2.8177964850328863e-05 9.308048902312294e-06 2.6380315830465406e-05 3.042129537789151e-05 3.096820364589803e-05 2.3137805328588e-05 2.0719475287478417e-05 2.5270739570260048e-05 3.221627775928937e-05 2.748465703916736e-05 2.433291228953749e-05 1.9491930288495496e-05 2.3498803784605116e-05 2.3175562091637403e-05 2.077105818898417e-05 2.5195118723786436e-05 3.0388351660803892e-05 1.5088210602698382e-05 2.732373286562506e-05 2.5915329388226382e-05 2.9152020943001844e-05 3.0762461392441764e-05 3.223185922252014e-05 9.493120160186663e-06 2.9581318813143298e-05 2.867992952815257e-05 2.0929604943376034e-05 1.287983286601957e-05 1.1116773748653941e-05 -0.0013683454599231482
2.9989365430083126e-05 3.0296472687041387e-05 3.0538823921233416e-05 2.893831151595805e-05 9.983133168134373e-06 2.6968667953042313e-05 3.0142296964186244e-05 3.0584084015572444e-05 2.376772135903593e-05 2.0770105038536713e-05 2.4797269361442886e-05 3.17750709655229e-05 2.769113598333206e-05 2.3881453671492636e-05 1.928398705786094e-05 2.3787612008163705e-05 2.3579081243951805e-05 2.2732914658263326e-05 2.5900839318637736e-05 3.010447289852891e-05 1.5385485312435776e-05 2.8304290026426315e-05 2.6084293494932353e-05 2.911339106503874e-05 3.1530275009572506e-05 3.349592225276865e-05 9.158764441963285e-06 3.0037448595976457e-05 2.8768423362635076e-05 2.0766308807651512e-05 1.3586797649622895e-05 1.1114057087979745e-05 -0.0014740462647750974
2.9912796890130267e-05 2.992893678310793e-05 3.0545390472980216e-05 2.951176429633051e-05 1.0406550245534163e-05 2.764699820545502e-05 2.9761567930108868e-05 3.013180503330659e-05 2.383535866101738e-05 2.0774892618646845e-05 2.4212777134380303e-05 3.1206694984575734e-05 2.7748355932999402e-05 2.3311864424613304e-05 1.8883385564549826e-05 2.397215757810045e-05 2.3859349312260747e-05 2.484097240085248e-05 2.649095949891489e-05 2.978570046252571e-05 1.5517496649408713e-05 2.9136012017261237e-05 2.6111467377631925e-05 2.8912367270095274e-05 3.2133786589838564e-05 3.4286123991478235e-05 8.828194040688686e-06 3.0431330742430873e-05 2.8709177058772184e-05 2.0576741007971577e-05 1.4377917068486568e-05 1.1143384654133115e-05 -0.001543818274512887
2.990319626405835e-05 2.9513457775465213e-05 3.0523337045451626e-05 2.98132945317775e-05 1.053265714290319e-05 2.836701605701819e-05 2.9308353987289593e-05 2.9633385565830395e-05 2.32939582929248e-05 2.075020529446192e-05 2.354009666305501e-05 3.054321859963238e-05 2.7649391995510086e-05 2.2656828150502406e-05 1.8320721210329793e-05 2.4047287297435105e-05 2.3998753022169694e-05 2.6936239009955898e-05 2.6934401830658317e-05 2.9430852009681985e-05 1.547751708130818e-05 2.9780863769701682e-05 2.6001293008448556e-05 2.8566106266225688e-05 3.254851981182583e-05 3.456530612311326e-05 8.525817065674346e-06 3.0743420211365446e-05 2.851515637303237e-05 2.0382496586535126e-05 1.5198785149550531e-05 1.1201221241208259e-05 -0.0015709009021520615
2.9955863283248618e-05 2.9087923394399695e-05 3.0485092793242075e-05 2.978429984068498e-05 1.0336961167922709e-05 2.9081238608341664e-05 2.881569707824383e-05 2.911490446422249e-05 2.2148937205201946e-05 2.0710251192213036e-05 2.2809079382568598e-05 2.982205114676617e-05 2.7396265068091452e-05 2.1953948817099445e-05 1.7639031284488738e-05 2.4015098460949957e-05 2.3990154659259133e-05 2.8858361474703997e-05 2.7207115635974333e-05 2.903984932345338e-05 1.5271163647412322e-05 3.0208488169591874e-05 2.5767190891201608e-05 2.8099206247134134e-05 3.276050847489387e-05 3.43253996106796e-05 8.280157089757267e-06 3.096144791925326e-05 2.8207798095536418e-05 2.020892861764878e-05 1.6002695701899938e-05 1.1286381777608767e-05 -0.0015508057549595833
3.0063623853493482e-05 2.8693704734905623e-05 3.0450266422121786e-05 2.9401780921034515e-05 9.821193998504896e-06 2.9749260647804476e-05 2.8320730052655563e-05 2.8607057174667716e-05 2.0462983229663223e-05 2.0669293007813394e-05 2.2058409740566276e-05 2.9086229915264994e-05 2.7001486159861088e-05 2.1246145479381084e-05 1.6893105566850863e-05 2.3885571863502264e-05 2.3838034394429997e-05 3.0456043532467447e-05 2.729664629441686e-05 2.8615275368792936e-05 1.4916741747583728e-05 3.0400218747672625e-05 2.5431805624975823e-05 2.7545576813281514e-05 3.27692468999885e-05 3.359016773174517e-05 8.122072358673904e-06 3.108316013822332e-05 2.7816970032290556e-05 2.0084289644728415e-05 1.675376006460283e-05 1.1402595191611908e-05 -0.0014818409690633416
3.0211416742531583e-05 2.8366239348542877e-05 3.0437222449108958e-05 2.86750710074557e-05 9.00981467566453e-06 3.03335164062446e-05 2.785545257211197e-05 2.813691389746964e-05 1.834740578487981e-05 2.0633287931559607e-05 2.1326324713299982e-05 2.83744084299542e-05 2.6481113309273496e-05 2.057150413747877e-05 1.6139138097059913e-05 2.366906301176641e-05 2.3551650883746333e-05 3.158701292704791e-05 2.7195288566872478e-05 2.815373954945244e-05 1.4437306163017638e-05 3.0343066100613214e-05 2.5018654923769645e-05 2.6938085284200497e-05 3.258063952671364e-05 3.240609657950699e-05 8.07579363026889e-06 3.1109510018723086e-05 2.737225076998584e-05 2.003099325520452e-05 1.742216591082979e-05 1.1551243915164378e-05 -0.001365733565762639
3.0375773349078372e-05 2.812983984767925e-05 3.0458433684543706e-05 2.7639127438305877e-05 7.942938282212708e-06 3.079820817220025e-05 2.7441690690466203e-05 2.7723404855350964e-05 1.595051071490161e-05 2.0599618437699974e-05 2.064688305836171e-05 2.7717716875486076e-05 2.5852848921203986e-05 1.996094397327397e-05 1.5429735867655836e-05 2.3377018806058913e-05 2.3144923034124076e-05 3.213556919945404e-05 2.689999200811144e-05 2.7647360184346326e-05 1.3856093573849648e-05 3.0029901608941145e-05 2.4549688532715663e-05 2.630519520607777e-05 3.220540747861378e-05 3.083920819335617e-05 8.155259820341598e-06 3.104288407485001e-05 2.6900041120825335e-05 2.0062343537574634e-05 1.7985405065701343e-05 1.172892461909214e-05 -0.0012071909150108695
3.05360445054248e-05 2.8003958504996262e-05 3.052600004593842e-05 2.6361227355664596e-05 6.6825914473156445e-06 3.1120431231101975e-05 2.7097443307866342e-05 2.7384263376006857e-05 1.3453559404297266e-05 2.0562842109939083e-05 2.0054818378412165e-05 2.714546280913055e-05 2.514351945137605e-05 1.9443159544607624e-05 1.481678100390127e-05 2.302642496943008e-05 2.264291288156528e-05 3.202852531103417e-05 2.642174695210997e-05 2.709452746785246e-05 1.3203502930991817e-05 2.9468659704434685e-05 2.4051405489444733e-05 2.567722367530223e-05 3.1666488212067634e-05 2.8978152840863913e-05 8.369615898118354e-06 3.089468373218551e-05 2.6428029741509818e-05 2.018908162426669e-05 1.843583413574379e-05 1.1935389920836315e-05 -0.0010137854842469096
3.066926001338288e-05 2.7995054551865906e-05 3.064493648707867e-05 2.4929326173150912e-05 5.301356395648327e-06 3.128447133349255e-05 2.6829551643459126e-05 2.7128533474751748e-05 1.1050557986891363e-05 2.0508636225713417e-05 1.9576746126404032e-05 2.6676358174881898e-05 2.438065712340176e-05 1.9036559024243616e-05 1.4341238056658767e-05 2.263273017888423e-05 2.207073885074351e-05 3.123151327599771e-05 2.5777886548894458e-05 2.649239104357548e-05 1.2506930943345651e-05 2.8675280191237107e-05 2.354689422645606e-05 2.507837962184567e-05 3.0989773222245276e-05 2.6920262826024555e-05 8.712361704965588e-06 3.067566649406217e-05 2.5978137273341417e-05 2.0410745491972193e-05 1.8771388567984104e-05 1.2165613952674903e-05 -0.0007958440692164004
3.075475979130715e-05 2.810055411828216e-05 3.0816212529316545e-05 2.3448679712601006e-05 3.879855739796767e-06 3.128654134343378e-05 2.6639187126420438e-05 2.696149385883473e-05 8.935013283917215e-06 2.042322557826992e-05 1.9235338186263107e-05 2.632435644045472e-05 2.3597149265697226e-05 1.8754379198071547e-05 1.4035362255526707e-05 2.221495560661424e-05 2.1460751668200828e-05 2.976605719595682e-05 2.4997447326313704e-05 2.5842178729362786e-05 1.179304308607243e-05 2.7678663172991946e-05 2.3059385057422332e-05 2.4530694645363837e-05 3.0209033866412938e-05 2.477004090906121e-05 9.1684159997385e-06 3.0401275580516085e-05 2.5569632271071896e-05 2.0721150576719083e-05 1.8999484382220544e-05 1.2414865523169283e-05 -0.0005654561682604253
3.0778261134400964e-05 2.8312293579801917e-05 3.1038034649100155e-05 2.2033134882804006e-05 2.504364601918496e-06 3.113635830231942e-05 2.6523563064984046e-05 2.688626955205109e-05 7.287329026439693e-06 2.029754250543192e-05 1.9048971807933412e-05 2.6100631657755002e-05 2.2832289687357843e-05 1.8606184312375262e-05 1.3924103768658824e-05 2.1796931832795963e-05 2.0852199668297544e-05 2.7710744689102285e-05 2.412253525108099e-05 2.515330743335653e-05 1.10884357127361e-05 2.6521973268245347e-05 2.261505142087117e-05 2.405497434665449e-05 2.9366878152359277e-05 2.263613168906886e-05 9.716539352666587e-06 3.0093260647845455e-05 2.52213139901869e-05 2.111086723743938e-05 1.9138258721795864e-05 1.268064443138428e-05 -0.0003356074448674917
3.073282277910039e-05 2.8616592317121103e-05 3.130474578938447e-05 2.0795709133381024e-05 1.260718704543251e-06 3.085516073042527e-05 2.6476838684175164e-05 2.6903040634351783e-05 6.2588528635387775e-06 2.0127179595874622e-05 1.903081101772841e-05 2.6012645321316086e-05 2.2130203433334827e-05 1.8597500456962734e-05 1.4021916285855696e-05 2.1406367523013614e-05 2.0287336155888624e-05 2.519847112125717e-05 2.320664316357579e-05 2.4445049348287284e-05 1.0419252248539124e-05 2.5260989787057042e-05 2.2240450562094338e-05 2.3670956579735503e-05 2.8511885830084793e-05 2.0622492229449563e-05 1.0331506928196177e-05 2.9777273084619083e-05 2.4950240913312882e-05 2.156715709134005e-05 1.9213104678783566e-05 1.2960943422513083e-05 -0.00011939047544728965
3.061527604586445e-05 2.8992302759434097e-05 3.1605304684489965e-05 1.9838777006953023e-05 2.2208045891147776e-07 3.047193786187563e-05 2.64891186816385e-05 2.7007428798242472e-05 5.955052984063514e-06 1.990983037103433e-05 1.9185315977665596e-05 2.60622582572978e-05 2.153475725208409e-05 1.8727996575762518e-05 1.4329606528917793e-05 2.10708130907733e-05 1.9808019715128466e-05 2.2408592485589907e-05 2.2310559870675206e-05 2.3745793441776186e-05 9.806957677938044e-06 2.3958920792210847e-05 2.1959935111226514e-05 2.3393778974423185e-05 2.7692840376403183e-05 1.881921707536094e-05 1.0980012120853644e-05 2.947747452708427e-05 2.4768480216152966e-05 2.2071864805184305e-05 1.9248927856096998e-05 1.3251794371171854e-05 7.093694875948131e-05
3.0425155273405835e-05 2.9411399737000465e-05 3.192140502505936e-05 1.9241020709159784e-05 -5.557797067012871e-07 3.0017521567060612e-05 2.6545369109953754e-05 2.7189491447643377e-05 6.425588253478054e-06 1.9646189684863202e-05 1.9506282114889473e-05 2.6244015316478908e-05 2.108662374666892e-05 1.8989885575138032e-05 1.4833411114523187e-05 2.081486672977917e-05 1.9451323169050738e-05 1.9554892787709832e-05 2.149652937077917e-05 2.3088266971171834e-05 9.26520715438528e-06 2.268195203214418e-05 2.1792578991153277e-05 2.3231383238453418e-05 2.6955951398122124e-05 1.7297070371569134e-05 1.1622936654021032e-05 2.9214934329502285e-05 2.4681292416062206e-05 2.2601152522838674e-05 1.9267656170995906e-05 1.3544686225941405e-05 0.00022479891777038574
3.016288064827677e-05 2.983984086313285e-05 3.22260420944076e-05 1.9047583919018507e-05 -1.0415004680908169e-06 2.9519587769755162e-05 2.6625175451044925e-05 2.7430451154941693e-05 7.657338755961973e-06 1.933838393597398e-05 1.9974422684754245e-05 2.654478157637641e-05 2.0817451513721608e-05 1.936684930115007e-05 1.5503339454880916e-05 2.0656587366829626e-05 1.9244247596361674e-05 1.6866411897353828e-05 2.082265382341575e-05 2.2506628738483414e-05 8.797916052571964e-06 2.1493413441930898e-05 2.1749687221017666e-05 2.318336373718921e-05 2.633964322740212e-05 1.6101101209642366e-05 1.2218813026265707e-05 2.9004884709138423e-05 2.4686540200491436e-05 2.312617471034173e-05 1.928515121107921e-05 1.3826082067680545e-05 0.0003343340358696878
2.9836102839908563e-05 3.0246250389609486e-05 3.249401197535917e-05 1.9277124010841362e-05 -1.2234289670232101e-06 2.9008871933910996e-05 2.6712552426033653e-05 2.7713100280379876e-05 9.581663107383065e-06 1.8997860024683177e-05 2.0567151295836084e-05 2.69513220700901e-05 2.0756195226567797e-05 1.984210939554032e-05 1.6304426026181318e-05 2.061310260614846e-05 1.9209881429560483e-05 1.4578680747945327e-05 2.0346715245977975e-05 2.204074007750023e-05 8.408101166423876e-06 2.045672772510443e-05 2.1841522539034486e-05 2.3248161596711725e-05 2.5879960958263837e-05 1.5254852769430727e-05 1.2731895367323887e-05 2.8860929887741804e-05 2.4780825697234832e-05 2.362004670430906e-05 1.9313118173158728e-05 1.4083690984989516e-05 0.000394760980270803
2.946095264633186e-05 3.0606661312049255e-05 3.2705123885534704e-05 1.992183933907654e-05 -1.1061183613492176e-06 2.8518528779386543e-05 2.6799072657013312e-05 2.802535345836077e-05 1.2082386092515662e-05 1.864630394265987e-05 2.1261796064209193e-05 2.7453485017758794e-05 2.092911017825827e-05 2.0402721929713152e-05 1.7201424270751886e-05 2.0702473193523474e-05 1.9367187633179128e-05 1.291858461627271e-05 2.012408003793098e-05 2.173608481825795e-05 8.099741535261273e-06 1.963415343197994e-05 2.2078760594013147e-05 2.34261569858063e-05 2.5610306693124585e-05 1.4762362297915388e-05 1.3137270798324607e-05 2.879661951737944e-05 2.4963122996268794e-05 2.4062528609647416e-05 1.9360810256330296e-05 1.4308255231298972e-05 0.00040456026908941567
2.905123255914077e-05 3.089935125899501e-05 3.283925252617337e-05 2.0940120521117933e-05 -7.182186436693883e-07 2.8073804060113616e-05 2.6877165510086343e-05 2.835284612956457e-05 1.4996906429587398e-05 1.83076426765183e-05 2.2029922547517344e-05 2.8037447918904945e-05 2.1350093447836116e-05 2.103230326611083e-05 1.8153727069147862e-05 2.0935700376867317e-05 1.9723971490748227e-05 1.2081017302989494e-05 2.0196941477479413e-05 2.1634034055750817e-05 7.872529749874957e-06 1.907568184833508e-05 2.246503390779253e-05 2.3711381800239906e-05 2.555218816269189e-05 1.4602862393076066e-05 1.3416814908850938e-05 2.881898035411723e-05 2.5227109290426597e-05 2.443389530526474e-05 1.942937888088636e-05 1.44884834298864e-05 0.0003658085479401052
2.862602377717849e-05 3.111274054390378e-05 3.288503285148181e-05 2.2267407985054888e-05 -1.0177419795809328e-07 2.7698126359609887e-05 2.694816248549614e-05 2.868719275284093e-05 1.8136875951313414e-05 1.801100734155625e-05 2.284672336827498e-05 2.8694115826510824e-05 2.2027075829100795e-05 2.1719779397244565e-05 1.912528750835918e-05 2.1322590328054503e-05 2.0282990590203553e-05 1.2223224985064007e-05 2.05992728297133e-05 2.1776417270302773e-05 7.729017852398101e-06 1.8823702703230083e-05 2.300326195836533e-05 2.409996341157239e-05 2.572192533989437e-05 1.4740761798748281e-05 1.3567016139859334e-05 2.8934122383361682e-05 2.5569635909050703e-05 2.472362211847212e-05 1.9518016415531747e-05 1.4617517990700435e-05 0.00028386025223881006
2.820174631779082e-05 3.1241244869306684e-05 3.2836054742801934e-05 2.3817539840820245e-05 6.880404725961853e-07 2.7406958906794898e-05 2.701678931771312e-05 2.9021413865848444e-05 2.1298013962223195e-05 1.7785381714929827e-05 2.3686998247285374e-05 2.9412685762508772e-05 2.2954438463784754e-05 2.2452422854257748e-05 2.008255796681624e-05 2.186403980886098e-05 2.103452425217256e-05 1.3439041140372865e-05 2.1346722860471345e-05 2.219505768152885e-05 7.669352271477692e-06 1.89033780770842e-05 2.3689974113949575e-05 2.4583952836110257e-05 2.6123578209080733e-05 1.5124712263059337e-05 1.3594571100838948e-05 2.914255492214579e-05 2.5986108084907755e-05 2.4925788238761015e-05 1.9621566025307402e-05 1.4689724594063591e-05 0.00016665861767251045
2.7789516025222838e-05 3.128322714474052e-05 3.268923319410533e-05 2.548715019656811e-05 1.5846616179260309e-06 2.72039178526029e-05 2.708838292164728e-05 2.934807889687363e-05 2.4273895178339444e-05 1.7655518604442477e-05 2.4523689717170782e-05 3.0178336601238698e-05 2.4110528102028184e-05 2.3215448891278356e-05 2.0993409634684213e-05 2.2550955691258423e-05 2.1955409465590492e-05 1.5753317711642012e-05 2.243339804408606e-05 2.2907397578819655e-05 7.690141501370817e-06 1.931914266606327e-05 2.451238651701715e-05 2.514992047508713e-05 2.67460236500483e-05 1.568931111251004e-05 1.3514271813619416e-05 2.943627623608336e-05 2.64665977738332e-05 2.5036424631252885e-05 1.9726508980966173e-05 1.4698153790959623e-05 2.4434579245280474e-05
2.739508454396855e-05 3.124228533124551e-05 3.2446911063743755e-05 2.7166226573172025e-05 2.5168212687276537e-06 2.7083880922873504e-05 2.7169366148882546e-05 2.9660932341357693e-05 2.6877356503973715e-05 1.7641032172832638e-05 2.533272527216468e-05 3.097502121818252e-05 2.5460882170591503e-05 2.3993843569769524e-05 2.183206015615724e-05 2.3366545065073296e-05 2.301332824572455e-05 1.912123479996808e-05 2.383415267104283e-05 2.3916658392408863e-05 7.7887289080536e-06 2.0056362700415775e-05 2.5450510293012485e-05 2.578052954049781e-05 2.7565400159801356e-05 1.6363448594347574e-05 1.334924490947742e-05 2.9800303309457377e-05 2.6997786335414276e-05 2.5055014702957124e-05 1.981225432245992e-05 1.4636838386650197e-05 -0.0001311105297645554
2.7019772460334934e-05 3.11289586534258e-05 3.2121315598487854e-05 2.874865458579734e-05 3.4180873171862913e-06 2.70378113782499e-05 2.726858110690955e-05 2.9958051527501084e-05 2.8956290407222696e-05 1.775808232196141e-05 2.6095436624018475e-05 3.178756742272526e-05 2.6960353352478705e-05 2.477379166521132e-05 2.2582478777621873e-05 2.4286484404001385e-05 2.4168390154954977e-05 2.342095467611216e-05 2.550479803176131e-05 2.521004898881074e-05 7.963375537656248e-06 2.108299122483004e-05 2.647961264301557e-05 2.645737367856782e-05 2.854889680747874e-05 1.7078100427170284e-05 1.3131542800692841e-05 3.0217173843993805e-05 2.756698631856125e-05 2.4987506549223326e-05 1.986154711630661e-05 1.4503936654364225e-05 -0.0002879675303120166
2.666317050170619e-05 3.096047294093296e-05 3.1733095966046676e-05 3.0142671676003374e-05 4.2332949306000955e-06 2.7053702069679275e-05 2.7397718440624885e-05 3.02421540254727e-05 3.0403456548810937e-05 1.8015862224274315e-05 2.6800365958479233e-05 3.260116864112206e-05 2.8555161406984553e-05 2.554326238168869e-05 2.32389156735735e-05 2.5281884518335573e-05 2.5375495170010254e-05 2.8461901820264757e-05 2.7384618078940548e-05 2.675922769412864e-05 8.214194167521782e-06 2.2351747247739695e-05 2.7571146347327158e-05 2.716194103413727e-05 2.9655948310391977e-05 1.777219404175412e-05 1.28999063235824e-05 3.0670467822346836e-05 2.8162428861833178e-05 2.4846694941516034e-05 1.9864555724780075e-05 1.4303885109256953e-05 -0.0004346808127593249
2.6325251383241266e-05 3.076136636082083e-05 3.131323683192022e-05 3.1279432732844725e-05 4.9252098506258335e-06 2.7120964659843594e-05 2.757154834398534e-05 3.0523002351401374e-05 3.1168601708486676e-05 1.8420036212773994e-05 2.7445908926893026e-05 3.3405489375581965e-05 3.0189175959094428e-05 2.629533628351055e-05 2.380750811425969e-05 2.632442738104146e-05 2.659227538970299e-05 3.400473724468611e-05 2.9404198357951827e-05 2.8524415029096417e-05 8.546227036276832e-06 2.38062821154017e-05 2.8697362722596154e-05 2.7879494155058637e-05 3.084471609327011e-05 1.8401688066660427e-05 1.2698799764621072e-05 3.114694482064806e-05 2.8776430553989485e-05 2.4654194930917583e-05 1.982170215342194e-05 1.4049428500584327e-05 -0.0005610433290712535
2.600057632662356e-05 3.05557441606652e-05 3.0894232622813433e-05 3.211144212400541e-05 5.4711349548597354e-06 2.7226060410612263e-05 2.7800600946648046e-05 3.080940950894728e-05 3.125681905657984e-05 1.896774301712867e-05 2.8033942726324312e-05 3.41879713232629e-05 3.180106432409957e-05 2.7021809728466906e-05 2.4299453798448667e-05 2.7380348910810426e-05 2.7774120098911226e-05 3.9768372516846284e-05 3.1482166377827525e-05 3.0452098144451156e-05 8.96129677130375e-06 2.5378436475875787e-05 2.982581645483151e-05 2.8593416573130526e-05 3.206697147106752e-05 1.8934508261736482e-05 1.2570272701850627e-05 3.162998837069608e-05 2.939759724540636e-05 2.4431377823930234e-05 1.9732136934180744e-05 1.375440933770733e-05 -0.0006588707910850644
2.5677425583126023e-05 3.036177258763928e-05 3.050507075386122e-05 3.261374149587937e-05 5.859561042598216e-06 2.734989539021626e-05 2.8086227757739834e-05 3.1105471862247214e-05 3.0722017982043326e-05 1.9641143808257766e-05 2.856372702808585e-05 3.492967152851634e-05 3.3322441595373675e-05 2.7708118068403564e-05 2.4724957256694324e-05 2.840809065673966e-05 2.8871419999632053e-05 4.54397959401831e-05 3.352458224981092e-05 3.247118729632348e-05 9.454179235035554e-06 2.6987716410076246e-05 3.091640246566385e-05 2.9280783564900048e-05 3.3267479011556134e-05 1.9348190107848495e-05 1.2544100172817707e-05 3.2098396332003176e-05 3.000931792485062e-05 2.4195202058763243e-05 1.9596160200308077e-05 1.3430771105049644e-05 -0.0007225880399346352
2.5347015252918936e-05 3.0198156309779733e-05 3.0176372092682868e-05 3.279114025644958e-05 6.099242000345839e-06 2.7478317861096002e-05 2.84282214124687e-05 3.141642810078338e-05 2.9668013667105697e-05 2.041897278104443e-05 2.9039993023616262e-05 3.561390985851176e-05 3.468915383564308e-05 2.8341632059891708e-05 2.509933074179571e-05 2.936775126727298e-05 2.984004095196724e-05 5.070171391707845e-05 3.543827551766299e-05 3.450196891208179e-05 1.001961572910659e-05 2.855395905498881e-05 3.193023076164536e-05 2.9922202884336002e-05 3.439419742790051e-05 1.963965769391507e-05 1.2645030437852256e-05 3.253554314142093e-05 3.059686059714295e-05 2.396563650108874e-05 1.942455128300935e-05 1.3095774193061516e-05 -0.0007495714817196131
2.4997523723868653e-05 3.0075454560574144e-05 2.9931727112852968e-05 3.2670421205693856e-05 6.2099034039420076e-06 2.75960483122617e-05 2.8817166821681894e-05 3.1742652936372906e-05 2.8230639145476744e-05 2.126898652932141e-05 2.9464572435244918e-05 3.622077565523796e-05 3.5839115298585966e-05 2.8905067665618844e-05 2.543337359384168e-05 3.0217233870644122e-05 3.063805343117565e-05 5.525333835976198e-05 3.71306377928704e-05 3.645802280516364e-05 1.0645856491464656e-05 2.999573371198494e-05 3.282698162365705e-05 3.0496039471472614e-05 3.539561294019222e-05 1.9818340661004186e-05 1.2884343050245661e-05 3.292445762781426e-05 3.114181527053006e-05 2.3757576855132356e-05 1.9229775716667064e-05 1.2764769962814171e-05 -0.0007399782771244645
2.4619728719699197e-05 3.0000819606357254e-05 2.9789554901071824e-05 3.2302781619364396e-05 6.223851414688397e-06 2.7692476578522474e-05 2.924030013673473e-05 3.2082898542284966e-05 2.6569090550765395e-05 2.2154605176183395e-05 2.983886588481255e-05 3.673245009849779e-05 3.672158709377982e-05 2.9382676075329073e-05 2.5735611416166648e-05 3.091934559051879e-05 3.123365240753628e-05 5.883549965801649e-05 3.85206876671873e-05 3.825832754955627e-05 1.1318385986669455e-05 3.124128852505237e-05 3.357102468726225e-05 3.0984308978077024e-05 3.622791700763628e-05 1.9908391550416127e-05 1.3261746062198654e-05 3.325290163047612e-05 3.162740540574305e-05 2.3585098460898735e-05 1.903022530314047e-05 1.245387738890713e-05 -0.0006967048975639045
2.421101635263767e-05 2.9979582905070856e-05 2.9764731152681634e-05 3.175956953782588e-05 6.183328878250904e-06 2.7764664991991594e-05 2.9684577384614386e-05 3.243658284191042e-05 2.4852721253409982e-05 2.3041315216687508e-05 3.0166602300596423e-05 3.713653131853789e-05 3.7302019336493686e-05 2.9762150006718002e-05 2.601444248284679e-05 3.144648144370876e-05 3.160760388709605e-05 6.124845094745979e-05 3.954581916332245e-05 3.9831942558521405e-05 1.202298608404817e-05 3.2234722311841324e-05 3.4135191526729614e-05 3.137545718345791e-05 3.6859375541098416e-05 1.99471596715739e-05 1.3768010830972344e-05 3.351519626448862e-05 3.204141103196889e-05 2.3462303943233564e-05 1.884898665593937e-05 1.218176657857839e-05 -0.0006250263541005552
2.377537930442486e-05 3.0013155992492102e-05 2.9864704629289918e-05 3.1122883228817955e-05 6.13487964074011e-06 2.7814916393253952e-05 3.0135399356367998e-05 3.2801417546579614e-05 2.3244569092639722e-05 2.3896063794381917e-05 3.045018638658803e-05 3.742499393410981e-05 3.756116348085925e-05 3.0033799703232944e-05 2.6274172341800295e-05 3.178036422468722e-05 3.175400343025103e-05 6.236580520635471e-05 4.0162856748793274e-05 4.1119630623143166e-05 1.2743205843435135e-05 3.293532790848985e-05 3.450061922194436e-05 3.16633922921028e-05 3.727021612576209e-05 1.9977638658019714e-05 1.4382988410943653e-05 3.371141428942792e-05 3.2375584851251915e-05 2.340146602364257e-05 1.8712005839915946e-05 1.1966824786213692e-05 -0.0005322374636307359
2.3320941181736998e-05 3.0096722184680402e-05 3.0085884645814076e-05 3.0475986932287924e-05 6.121240858192323e-06 2.784729076665826e-05 3.057494541280903e-05 3.317038863315247e-05 2.1885234673391096e-05 2.468716775183566e-05 3.068741352763027e-05 3.7591566069750115e-05 3.749459210666828e-05 3.0188759410521016e-05 2.651192517078016e-05 3.1910010875435546e-05 3.167591421515681e-05 6.213766027940437e-05 4.034791709273122e-05 4.207491292618215e-05 1.3458681678457651e-05 3.331822881591506e-05 3.4654938644962385e-05 3.184508022968657e-05 3.745047069969587e-05 2.0041074094478972e-05 1.5075137525855098e-05 3.384333831490949e-05 3.26227855111938e-05 2.3410000721924007e-05 1.864064506662544e-05 1.1823725799331442e-05 -0.00042674143332988024
2.2859356249682605e-05 3.021831435034983e-05 3.0412447813432664e-05 2.9896902560722083e-05 6.175582711875904e-06 2.7865862648468465e-05 3.0982206226326525e-05 3.35308322974015e-05 2.0879546354990453e-05 2.538196167733986e-05 3.0870127375237644e-05 3.763141285162419e-05 3.711056342581287e-05 3.0217255698516965e-05 2.671487527550198e-05 3.183006992912851e-05 3.1383195164380595e-05 6.059192674001679e-05 4.009564145235345e-05 4.2664069042075425e-05 1.4142369764158502e-05 3.337320595164783e-05 3.4590768336784095e-05 3.1917930755298585e-05 3.739847306860611e-05 2.0170293282717466e-05 1.580093157826923e-05 3.39129583153408e-05 3.277523137512617e-05 2.3488086299039423e-05 1.864966361608822e-05 1.175979650724912e-05 -0.00031752086943015456
2.2403593902708963e-05 3.035856207134202e-05 3.0816237995168194e-05 2.9446247935993597e-05 6.3167935877572745e-06 2.7871556085301563e-05 3.1333172955783084e-05 3.386286334716715e-05 2.028608287218958e-05 2.5948722395696677e-05 3.098269007750787e-05 3.7538804463110864e-05 3.6427940358407795e-05 3.0108409191598184e-05 2.6860721845878288e-05 3.154007572447881e-05 3.089101301156916e-05 5.783123924629763e-05 3.9418195228790864e-05 4.2868254240602255e-05 1.4763492799829692e-05 3.310382453491911e-05 3.430586730246432e-05 3.187914262525737e-05 3.711881072376855e-05 2.0385339666972868e-05 1.6507636246387847e-05 3.392124563106336e-05 3.282430407125503e-05 2.362766826990992e-05 1.8745175111689605e-05 1.1774936865549535e-05 -0.0002134117967216298
2.197345565946307e-05 3.0497536499751732e-05 3.1264371500583366e-05 2.917182609962765e-05 6.549702447955497e-06 2.7867736207554117e-05 3.160771302646026e-05 3.4147360565839335e-05 2.0118086467846297e-05 2.6363795768702403e-05 3.100893445662223e-05 3.7314930523280054e-05 3.548123640939593e-05 2.9857357731088996e-05 2.692577982088551e-05 3.1051193218445405e-05 3.022554847120773e-05 5.403051545727067e-05 3.8349964597728103e-05 4.268919656169601e-05 1.5293655451387167e-05 3.2530973840039223e-05 3.3807904401328415e-05 3.1730734917800874e-05 3.6627559893531725e-05 2.0696117644547485e-05 1.7142234355560504e-05 3.387142714927904e-05 3.276607458246872e-05 2.3819084162823856e-05 1.8927639757748693e-05 1.186519511975348e-05 -0.00012225593673065305
2.1596906663035043e-05 3.0619030439993367e-05 3.1723491701995954e-05 2.9104805435054004e-05 6.869328444736311e-06 2.7862544811796397e-05 3.179418126819655e-05 3.4369710192549974e-05 2.0347022655187175e-05 2.6614105081534944e-05 3.0937088013160974e-05 3.697030115290545e-05 3.432072844589129e-05 2.9468714274116792e-05 2.6889447326539084e-05 3.0387574952328578e-05 2.9423925298033282e-05 4.9425212637288496e-05 3.6947429180145264e-05 4.215043009025976e-05 1.5711124433437362e-05 3.1694693461759016e-05 3.3117055863840505e-05 3.1483079510508105e-05 3.5952936741523445e-05 2.1104089682921767e-05 1.7657157513895072e-05 3.37716301146429e-05 3.260450466768816e-05 2.4053813831415027e-05 1.919387432280928e-05 1.2025589057884645e-05 -5.047862578066997e-05
2.1300835214788094e-05 3.070542516070418e-05 3.215583637938835e-05 2.9248916689539328e-05 7.254285264934879e-06 2.7860465706908144e-05 3.188296250300482e-05 3.451362135820091e-05 2.0901643438264728e-05 2.669093373697251e-05 3.075378481298685e-05 3.651645238278434e-05 3.3002706913976e-05 2.8949856641702354e-05 2.6730342142400332e-05 2.957764081656933e-05 2.8523818400572054e-05 4.4287211494520307e-05 3.52782299160026e-05 4.128821092308499e-05 1.5993746274034493e-05 3.064359043492004e-05 3.225767795811407e-05 3.1145813409239054e-05 3.512651892378926e-05 2.1594536519842222e-05 1.800785685190931e-05 3.362724601174705e-05 3.234435644117184e-05 2.4317498173331842e-05 1.9528428310877644e-05 1.224472543981392e-05 -2.745229267020477e-06
2.1116504285600968e-05 3.074507912970148e-05 3.252884926041588e-05 2.9590088161057793e-05 7.674998414586298e-06 2.7868849429069087e-05 3.18736165354494e-05 3.4569664421724156e-05 2.1683237719116732e-05 2.6598247131914832e-05 3.0453242288785987e-05 3.597323302528821e-05 3.159242623951286e-05 2.8317272153799422e-05 2.643552579684183e-05 2.8659551389864646e-05 2.7569441954256035e-05 3.891010055667721e-05 3.342329364386387e-05 4.0154060116037726e-05 1.612908636161592e-05 2.9436967452056706e-05 3.126357478322461e-05 3.0734227038919926e-05 3.418728738324717e-05 2.2143842215882614e-05 1.816149779187981e-05 3.344636570545845e-05 3.1996572943171486e-05 2.4597844458185136e-05 1.9910770788555965e-05 1.2509743100963533e-05 1.8112370526068844e-05
2.1071857190690935e-05 3.072774052270688e-05 3.281286990386434e-05 3.0094231988186948e-05 8.091600648185704e-06 2.7893893275177106e-05 3.176974496454932e-05 3.4531523851910606e-05 2.257049891341012e-05 2.634560951264575e-05 3.003300298587419e-05 3.5361947084311396e-05 3.0154455089359544e-05 2.7590647732722573e-05 2.599718027340714e-05 2.767279693216551e-05 2.6602156140143052e-05 3.358418689458631e-05 3.146629023831338e-05 3.88070875487756e-05 1.610947583685629e-05 2.8135853426647373e-05 3.017092058144044e-05 3.0263769076555036e-05 3.317411756142974e-05 2.2715499653713778e-05 1.8094333427143283e-05 3.323432611068711e-05 3.157327591907233e-05 2.4880937417037785e-05 2.0315992514952086e-05 1.280532615055563e-05 1.144151701737428e-05
2.1186746380408294e-05 3.064450720557943e-05 3.298222509329207e-05 3.070601087529212e-05 8.455423994746525e-06 2.7937112463405356e-05 3.157716491841711e-05 3.4394714020891115e-05 2.342945481359493e-05 2.5944334993255325e-05 2.9493186957552098e-05 3.470244337222539e-05 2.87480179395061e-05 2.67910127149662e-05 2.5412437025806867e-05 2.665617830643896e-05 2.565878094173968e-05 2.857836807379499e-05 2.9487351639545523e-05 3.7307687307475135e-05 1.5931225789245218e-05 2.6797877580975182e-05 2.9014818210271187e-05 2.9745900974376127e-05 3.212158480891958e-05 2.326277899555862e-05 1.7792814105632715e-05 3.29918329953216e-05 3.108463351964019e-05 2.51490855589509e-05 2.0712188415927812e-05 1.3110824511386454e-05 -2.134219539584592e-05
2.147363375115674e-05 3.0487835829262622e-05 3.3017848181771114e-05 3.1356274121208116e-05 8.715115654922556e-06 2.799713365675416e-05 3.130316690658219e-05 3.4157907066401094e-05 2.412877802271396e-05 2.5408107831026427e-05 2.883913657569792e-05 3.401248250156641e-05 2.7423429855844006e-05 2.5940284103853628e-05 2.4685759854037315e-05 2.564481837907806e-05 2.47685493377503e-05 2.4118240617099218e-05 2.75585480267182e-05 3.5714438126888126e-05 1.55960806296207e-05 2.547322765167337e-05 2.782696537906304e-05 2.918945210694801e-05 3.1058272725204006e-05 2.3736205548630096e-05 1.7255311831831932e-05 3.271428431617096e-05 3.053899490623735e-05 2.5381759769516066e-05 2.1060945073259063e-05 1.3402899639913812e-05 -7.705752068432048e-05
2.1938391000730917e-05 3.0256231184466742e-05 3.291275061201304e-05 3.1970779673429206e-05 8.824490578263067e-06 2.807399505400099e-05 3.096025830018334e-05 3.382730210432783e-05 2.4557019060011953e-05 2.4757615392445587e-05 2.8084776204195805e-05 3.331115294713527e-05 2.622375359351281e-05 2.506487180653494e-05 2.3833954401197843e-05 2.4671950086485595e-05 2.395541923760902e-05 2.037195190496277e-05 2.5742894649738446e-05 3.408399788895622e-05 1.511503887741128e-05 2.4205261070164852e-05 2.6638457711669616e-05 2.860316635633353e-05 3.0008597605046816e-05 2.4090621081995778e-05 1.6495287127327174e-05 3.239654688513838e-05 2.9946264476166107e-05 2.5561084839864634e-05 2.1325109628378414e-05 1.365971183986403e-05 -0.00015117590373847634
2.2579777578357607e-05 2.995468457811512e-05 3.2673247915226966e-05 3.247737913625315e-05 8.749619155423716e-06 2.8170630685053766e-05 3.0565781344193965e-05 3.3417971280869097e-05 2.4634020519442856e-05 2.402132304268889e-05 2.7254895030637272e-05 3.261931851739064e-05 2.5183333491440862e-05 2.4194527213694528e-05 2.2887663362780586e-05 2.3769713152432814e-05 2.323898115719203e-05 1.7444372133468278e-05 2.409221269772388e-05 3.2465723052155226e-05 1.4510163055092562e-05 2.302960456290748e-05 2.5479821488261223e-05 2.799674984999001e-05 2.899337596318219e-05 2.429220148769673e-05 1.55422676471062e-05 3.203503001714125e-05 2.9318267479538918e-05 2.5673194613773376e-05 2.1473744709510356e-05 1.386440453643445e-05 -0.00023813897860236466
2.3390357455355115e-05 2.959637095045764e-05 3.2321120670530945e-05 3.281395765952766e-05 8.474451533402316e-06 2.8295045922277495e-05 3.0142220566631295e-05 3.295506758149713e-05 2.4321425371454097e-05 2.3233269530464895e-05 2.6385467208456248e-05 3.195944373146631e-05 2.432910150673706e-05 2.3363665604847483e-05 2.189088991144672e-05 2.296903039678e-05 2.2635609639110044e-05 1.5379533579107374e-05 2.2648777303402312e-05 3.0904662708053365e-05 1.3812401448376477e-05 2.19758312596241e-05 2.438117007841356e-05 2.7383041015127674e-05 2.8031763577018864e-05 2.4321880118804984e-05 1.4441167877521366e-05 3.16292280331254e-05 2.8670358005911112e-05 2.5710769477882423e-05 2.148517523892224e-05 1.4008155631017871e-05 -0.00033192828414030373
2.4350863895961083e-05 2.9194921808084473e-05 3.1886120268609375e-05 3.292769906693138e-05 7.995418854989111e-06 2.8453458071453497e-05 2.9709801310673356e-05 3.246630512876436e-05 2.3619351850356907e-05 2.242620575998444e-05 2.5515306333545595e-05 3.1349583878181875e-05 2.3672937459195964e-05 2.260283326904755e-05 2.0892566681141034e-05 2.2290907509159297e-05 2.215220229118131e-05 1.4153101801639423e-05 2.143660094588995e-05 2.9433791496558115e-05 1.3055052477284335e-05 2.105940984620247e-05 2.3365229935734533e-05 2.6771014745463617e-05 2.7133237381349318e-05 2.417114592390135e-05 1.3243070497992449e-05 3.117633968940936e-05 2.8013886549160816e-05 2.5666557121439837e-05 2.134327769454103e-05 1.4084906069911085e-05 -0.00042657327139750123
2.5428533263038844e-05 2.876071084756404e-05 3.1400333682540804e-05 3.277481300756335e-05 7.31968202671851e-06 2.8646434657275677e-05 2.9282027753652073e-05 3.197696787538007e-05 2.256416337331757e-05 2.1628933609463274e-05 2.4681306967977434e-05 3.0799114028923213e-05 2.3210939616546966e-05 2.1934978576609865e-05 1.9940867787227035e-05 2.1746240236097947e-05 2.1785705030197278e-05 1.3683649740414694e-05 2.0461577150854282e-05 2.807343116728589e-05 1.2271494597371202e-05 2.0282866898924112e-05 2.2444399291998707e-05 2.616379970277194e-05 2.6298122975276783e-05 2.3842789232730865e-05 1.2000791684840806e-05 3.0670620617456734e-05 2.7354350095265545e-05 2.553144258854445e-05 2.1036084945080802e-05 1.4088326679484453e-05 -0.0005161970620974898
2.658450284798164e-05 2.8308091714279726e-05 3.090386962867342e-05 3.23335116263479e-05 6.475538611994125e-06 2.8877224394818768e-05 2.887351729441434e-05 3.151723649352789e-05 2.123407830367796e-05 2.087478969770018e-05 2.3924400011310354e-05 3.031759842997417e-05 2.2931990315555595e-05 2.1382509657996707e-05 1.9088478438789025e-05 2.1342633772292174e-05 2.153041714336723e-05 1.3846880392520688e-05 1.97198532987386e-05 2.6839081328944303e-05 1.1499122592795175e-05 1.9642753613879904e-05 2.1629934053635225e-05 2.556738218117971e-05 2.5525776436552405e-05 2.335939097974915e-05 1.0773000212793704e-05 3.0111610612948425e-05 2.669900823093485e-05 2.5302631911472417e-05 2.056594894384034e-05 1.4020054550201166e-05 -0.0005957018584012985
2.777055669866968e-05 2.7847570891026407e-05 3.043568358407356e-05 3.1599112844560295e-05 5.500697625393514e-06 2.9144097425159998e-05 2.8491402190411463e-05 3.1111376301851124e-05 1.9733954104594886e-05 2.019038402067963e-05 2.3279157176148146e-05 2.990631401189603e-05 2.2811256712884642e-05 2.095765375997871e-05 1.8379732864559628e-05 2.1075078620924614e-05 2.1371388356783427e-05 1.4475112038780935e-05 1.9191045794286765e-05 2.5732413632795215e-05 1.077058186638169e-05 1.9123212041449733e-05 2.0922401745337993e-05 2.498290268704295e-05 2.4806939109112136e-05 2.275440056109801e-05 9.613924703444354e-06 2.949757981696166e-05 2.6049185180454515e-05 2.4976998247439042e-05 1.9941535356338136e-05 1.3883366591471713e-05 -0.0006608853582292795
2.8935150112374686e-05 2.7389289243728854e-05 3.003414713020902e-05 3.0588471418013796e-05 4.445074409886729e-06 2.944352127087768e-05 2.8140046197222546e-05 3.0781739042140543e-05 1.8188076865044422e-05 1.9601131498347968e-05 2.2775362594984472e-05 2.9563920179498382e-05 2.281846354890149e-05 2.0667246644734405e-05 1.7853422832558863e-05 2.093370676448103e-05 2.1290996301104315e-05 1.538480501039885e-05 1.88472058653133e-05 2.4749077056185342e-05 1.0116072189703118e-05 1.87052100955043e-05 2.0319199393270537e-05 2.441167271172162e-05 2.413156471448019e-05 2.2073332729632966e-05 8.574143976147752e-06 2.8831047529820353e-05 2.5405824999324977e-05 2.455504727549851e-05 1.91820345207816e-05 1.3686639249499422e-05 -0.0007085542310960591
3.00282372336369e-05 2.6944702767650597e-05 2.9736036594840698e-05 2.933964060503058e-05 3.3704936868161894e-06 2.977238364110235e-05 2.782295450742822e-05 3.0549232178600505e-05 1.6731690266169608e-05 1.9131846784148365e-05 2.243915332655888e-05 2.9289521989994682e-05 2.292346653121058e-05 2.0515735741355456e-05 1.754203185555525e-05 2.090805719490163e-05 2.1275520339258946e-05 1.6397510989918374e-05 1.8659997294889763e-05 2.3884675101726316e-05 9.564145329932217e-06 1.8371489204582758e-05 1.9818227883661166e-05 2.385976040386595e-05 2.3493294065701775e-05 2.1373147319536656e-05 7.70039787312271e-06 2.812277671182528e-05 2.477307316439692e-05 2.4044407837209292e-05 1.832057569117751e-05 1.3445386684907135e-05 -0.0007368556107394397
3.100396861555055e-05 2.652539114933461e-05 2.957255310320761e-05 2.790798680507578e-05 2.344178255953011e-06 3.012552588188555e-05 2.7542600946617313e-05 3.0429660910158418e-05 1.5495372281293385e-05 1.880538184195757e-05 2.2288430045591667e-05 2.908114402089268e-05 2.309635056008119e-05 2.0502524421317503e-05 1.7467255020164885e-05 2.0985540686524473e-05 2.1312471290002577e-05 1.7349888366879895e-05 1.860112934082281e-05 2.3134549337555654e-05 9.138871973846108e-06 1.81068080564728e-05 1.94161129911663e-05 2.333530028408859e-05 2.2889053070684895e-05 2.071607559628319e-05 7.032312169030774e-06 2.738873263297137e-05 2.415672133793123e-05 2.3457465431420133e-05 1.7400048818672076e-05 1.3179278539610095e-05 -0.0007449986878782511
3.1821735319681466e-05 2.61396180576412e-05 2.956468415504787e-05 2.635954660945572e-05 1.4305810509540606e-06 3.0492377845803276e-05 2.729823609115556e-05 3.0430213882937096e-05 1.459204577258788e-05 1.8639126210473478e-05 2.2329826606437564e-05 2.8934622605447657e-05 2.330855386389885e-05 2.0620740542653948e-05 1.7637044948060066e-05 2.1151156033738516e-05 2.1390404072008096e-05 1.810716094041709e-05 1.8643968360265717e-05 2.2494978111353703e-05 8.857576176524162e-06 1.7898186342790723e-05 1.91080616787076e-05 2.2846750653116032e-05 2.2318048650049604e-05 2.0161878637736663e-05 6.597481842618436e-06 2.6648220227798447e-05 2.3562213755212724e-05 2.2809410438640043e-05 1.6467462046421133e-05 1.2909104952996131e-05 -0.0007331799133680761
3.244537947466597e-05 2.578989733592607e-05 2.9719301892328076e-05 2.4765284251770936e-05 6.838585591140145e-07 3.0855651857564226e-05 2.7083897293778136e-05 3.054674016311765e-05 1.4103943613008596e-05 1.8641634596860968e-05 2.255553954455536e-05 2.8841903258580714e-05 2.3532644263468683e-05 2.0854904505540617e-05 1.8041650037048385e-05 2.1386418666224927e-05 2.1498433852684684e-05 1.8570266547612846e-05 1.876253190857824e-05 2.196181048930157e-05 8.72640339366626e-06 1.7733600543579087e-05 1.888599945232272e-05 2.2399695808417164e-05 2.1779262169729918e-05 1.9759116185014136e-05 6.408920398826012e-06 2.5920286134351045e-05 2.2992364392848685e-05 2.211472201452125e-05 1.5568552043987438e-05 1.2652969417104032e-05 -0.0007023912621662021
3.284278136561625e-05 2.5471861590631306e-05 3.0026751119294204e-05 2.319282248208765e-05 1.412275452139511e-07 3.118862514384091e-05 2.688747554202564e-05 3.076118809985928e-05 1.4072847079660278e-05 1.88083213288337e-05 2.2940936105442233e-05 2.8788643248844892e-05 2.3741786208120175e-05 2.1179876057431102e-05 1.8651107893674634e-05 2.166811827919446e-05 2.1622130589094013e-05 1.8679897038964555e-05 1.89322599908337e-05 2.1527213903027587e-05 8.73724275152199e-06 1.7600956198293716e-05 1.873642031569034e-05 2.199514528911095e-05 2.127009429386817e-05 1.9539093045750633e-05 6.4620785451552365e-06 2.5221217583748512e-05 2.244573988718912e-05 2.1384874344221316e-05 1.4744171494385228e-05 1.2422356121533085e-05 -0.0006543010240420699
3.299631498521194e-05 2.5180359443766065e-05 3.0467506803688593e-05 2.170949665014632e-05 -1.7115397099587426e-07 3.146313611068763e-05 2.6698728106566705e-05 3.105050927842967e-05 1.4501663827104494e-05 1.9129543943563476e-05 2.3453589165001176e-05 2.876302824006416e-05 2.3917218641145155e-05 2.157004018954467e-05 1.942525886988733e-05 2.1976080461172387e-05 2.1753750843345188e-05 1.8425273083266802e-05 1.9137660274282098e-05 2.1189456674619578e-05 8.877391337591689e-06 1.749482544255443e-05 1.8648795958142728e-05 2.1635463781422004e-05 2.079360456264112e-05 1.9518873159540817e-05 6.742242931068176e-06 2.456993388477713e-05 2.19234025280457e-05 2.0634251995943487e-05 1.4033808838576078e-05 1.2228390005475376e-05 -0.0005911162006668746
3.290574750280939e-05 2.4913748347898945e-05 3.101615948253311e-05 2.0380588466650806e-05 -2.3907315949145413e-07 3.165458838338964e-05 2.6512707336223684e-05 3.13888922391925e-05 1.5355997675214894e-05 1.959337168955244e-05 2.405726809229236e-05 2.8758176995324902e-05 2.4051965738181025e-05 2.200164453824982e-05 2.0317997041274793e-05 2.2298207113635726e-05 2.1893565644859336e-05 1.7844226022134535e-05 1.9374901967239566e-05 2.0954581486876123e-05 9.132273589784745e-06 1.7419661162421107e-05 1.861876080511138e-05 2.132725239789579e-05 2.0360184862511232e-05 1.9701628843904473e-05 7.22824643162312e-06 2.3989454348338768e-05 2.1432031644508243e-05 1.9882914784830064e-05 1.3475627383741084e-05 1.2083705769327935e-05 -0.000515249848831445
3.258170181652531e-05 2.466647492838092e-05 3.163757355650887e-05 1.925910146383103e-05 -6.848983247209617e-08 3.1737239623907954e-05 2.6323297788621858e-05 3.174395897076465e-05 1.6559522919123992e-05 2.0178038539597765e-05 2.4707796910661273e-05 2.8765478418790735e-05 2.4143379050656222e-05 2.244893585157115e-05 2.1274379832902923e-05 2.2622256437898614e-05 2.2041987904231064e-05 1.700729990261607e-05 1.9643593986984342e-05 2.0828327251365408e-05 9.481237611908e-06 1.7381073121214285e-05 1.8639893824001774e-05 2.1073119569336995e-05 1.9979461285402067e-05 2.0068173398613e-05 7.887910214776639e-06 2.3497952497564256e-05 2.0975452571292408e-05 1.9147724742651917e-05 1.3095475878799334e-05 1.1992940926575102e-05 -0.00042940257117152214
3.205186658306047e-05 2.443561243126169e-05 3.229560752515681e-05 1.8389288015896454e-05 3.2345496947527863e-07 3.1691641197539866e-05 2.6130257538170554e-05 3.208495400031097e-05 1.8007982362178154e-05 2.0859659343841486e-05 2.5362731321365573e-05 2.878222039726097e-05 2.4199271138058975e-05 2.2891439584782347e-05 2.2241032638703473e-05 2.294350451848004e-05 2.220571150246542e-05 1.6016700101317838e-05 1.995206366700586e-05 2.0820405552512966e-05 9.902978490572423e-06 1.7390182620147243e-05 1.8710763470153324e-05 2.087758002744522e-05 1.966566742339637e-05 2.058438076346647e-05 8.685660759510938e-06 2.3113641873351298e-05 2.0561286873999052e-05 1.8448945411364548e-05 1.2912320016766898e-05 1.1959427865804173e-05 -0.00033641085610724986
3.135548467980698e-05 2.4218667022068985e-05 3.295049100415781e-05 1.7797996406443417e-05 9.066057486961654e-07 3.150226621073671e-05 2.593510362203233e-05 3.238106000935659e-05 1.9573486497392878e-05 2.161003794753924e-05 2.5979617930715904e-05 2.8807056878576986e-05 2.4232071154983714e-05 2.3311502445722e-05 2.316537756996695e-05 2.325980312889442e-05 2.2392136088456027e-05 1.4989932424214203e-05 2.0312010747147724e-05 2.093974944727961e-05 1.0373842087574303e-05 1.7458438378525898e-05 1.883081131381914e-05 2.0742800188600086e-05 1.9431916371104307e-05 2.1200396076892503e-05 9.581258382240776e-06 2.2849952074466273e-05 2.0197079720674083e-05 1.7804146409616806e-05 1.2933805919601582e-05 1.1981129318883177e-05 -0.000239098648307845
3.0537936254404485e-05 2.401115489192307e-05 3.3561314921826124e-05 1.74944507307373e-05 1.6362463384211878e-06 3.11591247736942e-05 2.5739307602634653e-05 3.260232551838271e-05 2.111678804794792e-05 2.239394780190196e-05 2.6518042432144284e-05 2.8837584977736697e-05 2.4255778043880127e-05 2.3692620743531734e-05 2.3998016331461258e-05 2.3569657059852034e-05 2.2606707716477104e-05 1.4046574506210163e-05 2.0734765712404624e-05 2.1192605345277116e-05 1.0868930985452607e-05 1.7595006283954717e-05 1.899703602248337e-05 2.066636625386309e-05 1.9287712348159403e-05 2.185278935940005e-05 1.053115374816116e-05 2.271305856993422e-05 1.9886845620931126e-05 1.7226842828677036e-05 1.3153446161595639e-05 1.2048531061736867e-05 -0.000140258896863088
2.9648585041286424e-05 2.380770274612587e-05 3.409084092709236e-05 1.7472135368734598e-05 2.460125870129559e-06 3.0660336051369086e-05 2.5545017706463113e-05 3.2722698961151764e-05 2.2501611965708435e-05 2.3174397938419133e-05 2.6943589546135627e-05 2.8871796530438587e-05 2.4285318431793712e-05 2.4022345314733684e-05 2.469776154612191e-05 2.3872613382991403e-05 2.2853178961668164e-05 1.3298165868036449e-05 2.1228903278824873e-05 2.1579819076578133e-05 1.1364963938831352e-05 1.7804371964302845e-05 1.920590875670314e-05 2.064211184915621e-05 1.9237875676481053e-05 2.247055272164289e-05 1.1490313227113802e-05 2.2701175112160854e-05 1.963124486792367e-05 1.6725836758268997e-05 1.3551285519497469e-05 1.214679559780052e-05 -4.2688763642217964e-05
2.87421698885737e-05 2.3606382455909625e-05 3.4511384001234546e-05 1.771394454408437e-05 3.3255234939133516e-06 3.0019620680832304e-05 2.535831299610436e-05 3.2727100915508345e-05 2.360155303904321e-05 2.3915530618978664e-05 2.7233454602537677e-05 2.8911337722092867e-05 2.4338172806892544e-05 2.4295641196658835e-05 2.523656985431444e-05 2.4172122721211053e-05 2.3135451556299813e-05 1.2842163414461538e-05 2.1802172341267578e-05 2.2098467525211163e-05 1.1844233085867018e-05 1.808917659218423e-05 1.945500662259292e-05 2.0663492250605486e-05 1.9285424059489742e-05 2.298236358910799e-05 1.2417491234373301e-05 2.2806989363743924e-05 1.943148163263686e-05 1.6307498299283907e-05 1.4098618521529716e-05 1.2259571121830959e-05 5.077660898678005e-05
2.7875774321728386e-05 2.3408932975144126e-05 3.4807511838153005e-05 1.8192855350207537e-05 4.1863008846121375e-06 2.9263735996210016e-05 2.518881046853494e-05 3.261322490288876e-05 2.4318886062246747e-05 2.458756171108689e-05 2.738112016231753e-05 2.8962549549760297e-05 2.4434060833300464e-05 2.451642467349302e-05 2.560388202255126e-05 2.447630868118722e-05 2.3459533622371964e-05 1.2753797818731982e-05 2.246063741040416e-05 2.274409962410573e-05 1.2296288332436234e-05 1.8450225979904644e-05 1.9744162273127586e-05 2.0725516151287593e-05 1.9431472537689842e-05 2.3326279915636405e-05 1.328047346760286e-05 2.302107350260485e-05 1.9289293049951084e-05 1.597789378138259e-05 1.4762349564989563e-05 1.2370884178380948e-05 0.00013737898552790284
2.710455737542361e-05 2.3223932657856494e-05 3.497927900752984e-05 1.8880060451920144e-05 5.0094495236407965e-06 2.8434600608306937e-05 2.505303746147547e-05 3.239412762923166e-05 2.4600751203252003e-05 2.517376560717821e-05 2.7398189558880404e-05 2.9039025321253575e-05 2.4596511138952337e-05 2.4701299480511807e-05 2.5810106308199465e-05 2.48004052991746e-05 2.3835355023038574e-05 1.3083785233902745e-05 2.3211830921354704e-05 2.3513239284511656e-05 1.2722185601887759e-05 1.8888506019720808e-05 2.00785871129483e-05 2.082809805870056e-05 1.967885509657208e-05 2.345759276067838e-05 1.4059435670787934e-05 2.333490010641981e-05 1.92101979337167e-05 1.574475936649833e-05 1.55086145241512e-05 1.2470387446228415e-05 0.00021439115516841412
2.647722612891812e-05 2.306072201463394e-05 3.503865809761919e-05 1.9742927179322578e-05 5.771455107606016e-06 2.7586525902734138e-05 2.4965969714685343e-05 3.209386704838835e-05 2.4433389626210555e-05 2.5663466658443213e-05 2.7308482458465733e-05 2.915504046541173e-05 2.4846596716088243e-05 2.4870745619409718e-05 2.588031202321872e-05 2.5159215510939248e-05 2.427060462650843e-05 1.3852327356289607e-05 2.4056720576481894e-05 2.4397890229010954e-05 1.3128589671396185e-05 1.940094261954073e-05 2.046192457783036e-05 2.0970546756871045e-05 2.002519613597542e-05 2.3347363821812905e-05 1.474205964768771e-05 2.373461211391259e-05 1.9197266738046892e-05 1.5611527487635612e-05 1.6299914932460524e-05 1.2547484402603004e-05 0.0002791398437693715
2.6030102162621915e-05 2.2924476070329547e-05 3.500344610074535e-05 2.0742490960401483e-05 6.455432412622031e-06 2.6777610401040874e-05 2.4936185582191683e-05 3.174045923515223e-05 2.3839387722546235e-05 2.6048419385915622e-05 2.7141222744830884e-05 2.9320566682145e-05 2.5195175112457946e-05 2.5044597350643016e-05 2.5846637072390877e-05 2.5562276277923957e-05 2.476533336448483e-05 1.5043635357869789e-05 2.4985616619233042e-05 2.5381159503012896e-05 1.3521720575226936e-05 1.997467188630253e-05 2.089215922751464e-05 2.114729068125598e-05 2.0459223378566094e-05 2.2981535948929377e-05 1.5318873920477927e-05 2.419879092485644e-05 1.9247085219831206e-05 1.557308314659167e-05 1.7094193026423454e-05 1.2589022844622377e-05 0.0003291107132099569
2.5787230697460473e-05 2.2822801838628948e-05 3.490259769023396e-05 2.1843616195837967e-05 7.0598985075776e-06 2.6072710170410573e-05 2.4973420295282267e-05 3.1372837838716805e-05 2.288419273099862e-05 2.63323472609045e-05 2.693832720979117e-05 2.954794945253525e-05 2.5651643227320164e-05 2.5248637030017562e-05 2.5754612579476088e-05 2.601972664706409e-05 2.5319906853837892e-05 1.661858732404653e-05 2.598694118205458e-05 2.6446408810443245e-05 1.3916169336880557e-05 2.0596326066879556e-05 2.1369094611145556e-05 2.1356310753617436e-05 2.0969535398762673e-05 2.237098124169279e-05 1.5792111298651434e-05 2.4707422198844142e-05 1.9356684788363054e-05 1.562326360726729e-05 1.7854043107945472e-05 1.2588204299390782e-05 0.00036221722257323563
2.575498729129322e-05 2.2760077627026476e-05 3.476838537608273e-05 2.3011118173599243e-05 7.594707312819082e-06 2.5535897293593735e-05 2.5081097192014568e-05 3.10324649035465e-05 2.166383455914911e-05 2.6528312446316704e-05 2.6745046852738596e-05 2.9845898097846657e-05 2.621850035211537e-05 2.5506828023935668e-05 2.5654240744188428e-05 2.653814954101108e-05 2.5931094569386914e-05 1.8515585907152854e-05 2.7041314751841128e-05 2.7574129489948973e-05 1.4327466487884521e-05 2.1248049961286597e-05 2.188892540289089e-05 2.159409996238537e-05 2.1539195586228743e-05 2.1547522919718176e-05 1.616939334780909e-05 2.5236004148609936e-05 1.951872582139913e-05 1.5749439626233652e-05 1.8541957615525462e-05 1.2539476301753893e-05 0.0003766966110561043
2.5926779926521704e-05 2.2740496206097305e-05 3.4636992495507e-05 2.421567842247896e-05 8.08192908152705e-06 2.5227083824574947e-05 2.525967465771828e-05 3.076314169447869e-05 2.0302695702412166e-05 2.6660463845473714e-05 2.660908648977056e-05 3.022235796379391e-05 2.6893660105997697e-05 2.584270987426862e-05 2.5598927095416002e-05 2.7122230676468462e-05 2.659394704096485e-05 2.065971420961432e-05 2.8127806217526086e-05 2.8746173484250903e-05 1.4773712791793514e-05 2.1912022930337116e-05 2.2447307856054977e-05 2.185949415434152e-05 2.215020140283741e-05 2.056584708043374e-05 1.6464780856040306e-05 2.576221595518291e-05 1.9725175661733374e-05 1.5937503121676855e-05 1.912856532726437e-05 1.2441704711818602e-05 0.00037114034057594836
2.6284786144969985e-05 2.2769514544052072e-05 3.454725811025128e-05 2.5437415388296358e-05 8.55530561238993e-06 2.520048110454809e-05 2.550837234593928e-05 3.060941526200622e-05 1.8944312614621595e-05 2.6762370907817967e-05 2.657856202858966e-05 3.0684990633744746e-05 2.767233490885701e-05 2.6279154553776607e-05 2.564245914982166e-05 2.777547160803806e-05 2.730480809987057e-05 2.297059108968824e-05 2.9225831895018928e-05 2.994757960550487e-05 1.5274872566806152e-05 2.2573918613488786e-05 2.3040805899654515e-05 2.2154235921334475e-05 2.2787289708503522e-05 1.9501167116686702e-05 1.670046003710013e-05 2.626911737024784e-05 1.9969702407252043e-05 1.617404996068217e-05 1.959645851457026e-05 1.2301587958063465e-05 0.0003448320203460753
2.6801304557011463e-05 2.2851878384244628e-05 3.453604585956782e-05 2.6664312827051617e-05 9.056496310222428e-06 2.549880082369782e-05 2.5823914256761782e-05 3.061221286770888e-05 1.773670010152273e-05 2.6873827664530836e-05 2.6697898647398688e-05 3.123997521470301e-05 2.854691047105007e-05 2.683637649170123e-05 2.5833600375335664e-05 2.8499796826508828e-05 2.805973417707719e-05 2.5371167794219218e-05 3.031551568710711e-05 3.116626612609252e-05 1.5850280760787427e-05 2.3222974050440826e-05 2.3666931156185456e-05 2.2482492568087764e-05 2.34370309044607e-05 1.8442928194417618e-05 1.690197314019315e-05 2.6744430215330794e-05 2.0246829080861062e-05 1.644520125410054e-05 1.9939205230912194e-05 1.2131577932450455e-05 0.0002975751121994108
2.7437614335212857e-05 2.298791332577821e-05 3.463051689323038e-05 2.7887786927749403e-05 9.623398909752723e-06 2.614493678265717e-05 2.619646147650201e-05 3.0801413231529295e-05 1.6816520655993372e-05 2.70364271273138e-05 2.6999579858966172e-05 3.1886709621176124e-05 2.9503737096092664e-05 2.7524893084773794e-05 2.6208874260191806e-05 2.9291308237588964e-05 2.8851862225565128e-05 2.778838279482443e-05 3.1375489925267175e-05 3.239126090193167e-05 1.6513256923644803e-05 2.3849119315855205e-05 2.432041583233513e-05 2.284655420226045e-05 2.408518412266858e-05 1.7483491319580935e-05 1.709427851892542e-05 2.7177913580089808e-05 2.0548470274661668e-05 1.6735120880184695e-05 2.0158720872132108e-05 1.1946776794502512e-05 0.00023025595874059945
2.8145846954430453e-05 2.3171423890744336e-05 3.484436820144765e-05 2.9101654945407063e-05 1.0286849828844424e-05 2.7139760277350433e-05 2.660895734152291e-05 3.1191633752314374e-05 1.629734288144391e-05 2.7287460397928953e-05 2.7499823772814125e-05 3.261656456743367e-05 3.052138345083222e-05 2.8344062229734845e-05 2.6787753085955046e-05 3.01382224279223e-05 2.9669017749256454e-05 3.0156365028233267e-05 3.238161662011407e-05 3.360837581567466e-05 1.726613481878303e-05 2.444197343720589e-05 2.4989582016132772e-05 2.3243528630700894e-05 2.471564403094817e-05 1.670933488640003e-05 1.7296102669206448e-05 2.755974310275633e-05 2.0861589291598648e-05 1.7023754480760545e-05 2.026221773121506e-05 1.1760679626604542e-05 0.00014449714217334986
2.8869266316178255e-05 2.33887076319661e-05 3.517577351885848e-05 3.02987882605521e-05 1.1068719686591066e-05 2.8457954613259062e-05 2.703660175029654e-05 3.1779167329659685e-05 1.6259418771369383e-05 2.765792487480212e-05 2.819613291649148e-05 3.3410167816327885e-05 3.1569630664307624e-05 2.9280008675414138e-05 2.7570005840971135e-05 3.1020921596791595e-05 3.049313454539515e-05 3.241450758650899e-05 3.330635809106752e-05 3.480090163066052e-05 1.8100356101058424e-05 2.498947287676856e-05 2.5656905563664623e-05 2.3664759282837622e-05 2.5309274860774167e-05 1.6196434444282204e-05 1.751909621816594e-05 2.7879154004040174e-05 2.116835821652785e-05 1.728661845845636e-05 2.025897083512973e-05 1.1584073035919573e-05 4.261417416273616e-05
2.9552087653428316e-05 2.3623859306098893e-05 3.561138146324083e-05 3.1475025025429204e-05 1.1980417184531689e-05 3.0052216970943846e-05 2.7453223083284684e-05 3.254672992625274e-05 1.6747473637224175e-05 2.8173708415124565e-05 2.9072811230435036e-05 3.424469105084427e-05 3.261676465626806e-05 3.031090454896912e-05 2.8540938728838228e-05 3.191750874975696e-05 3.1305939046433195e-05 3.451333395787515e-05 3.412493970245123e-05 3.595250746002421e-05 1.9002256522071548e-05 2.5482648197794333e-05 2.6303978302166797e-05 2.4099623260553926e-05 2.584923458925914e-05 1.6008712918846868e-05 1.777113175194245e-05 2.81293523585191e-05 2.1451001884997822e-05 1.7499942259746604e-05 2.0163777662673965e-05 1.142789187724702e-05 -7.23530029063113e-05
3.014713729498908e-05 2.386295636824798e-05 3.612950968090445e-05 3.262959580752067e-05 1.3024368854530621e-05 3.1860203307587653e-05 2.7836143999593332e-05 3.346679295646027e-05 1.776935823727399e-05 2.885378671635408e-05 3.0103597964625806e-05 3.509598900564015e-05 3.3632739359745756e-05 3.140993067063391e-05 2.967456566693727e-05 3.280687451479025e-05 3.209178612451069e-05 3.641975126811303e-05 3.481912790448405e-05 3.704859409481287e-05 1.9953016817453317e-05 2.5918650862877257e-05 2.6914891350315884e-05 2.4538880097679794e-05 2.632495670695789e-05 1.6193829651456326e-05 1.8057860870612785e-05 2.8310896595939994e-05 2.1696201656595804e-05 1.764561420714017e-05 1.9998939023935236e-05 1.1305631232971791e-05 -0.00019676625379361212
3.061137249460444e-05 2.4085526092676446e-05 3.669258876470849e-05 3.37592136929743e-05 1.4185476175043732e-05 3.379896588739939e-05 2.815799234667793e-05 3.449423820711672e-05 1.9288743715151213e-05 2.9700149752898142e-05 3.1244380807038397e-05 3.593236397136934e-05 3.4582710213726386e-05 3.253943577874452e-05 3.092602491960861e-05 3.366223972989246e-05 3.2830976124387234e-05 3.8107813452370465e-05 3.53691320924554e-05 3.807052780757658e-05 2.092283102683723e-05 2.6292833354091272e-05 2.7468802727526054e-05 2.4966098862932995e-05 2.6723997507360764e-05 1.6771349692135118e-05 1.837403942772653e-05 2.8422564355423674e-05 2.1886666218051687e-05 1.770357630448416e-05 1.978433101612609e-05 1.1224168702028692e-05 -0.0003266429703217
3.09151982946787e-05 2.4274009774671867e-05 3.7258152588037774e-05 3.4861113817896694e-05 1.5438408809131943e-05 3.577624374884181e-05 2.8396578272804618e-05 3.5575827496359125e-05 2.1238034605630673e-05 3.0705621611559764e-05 3.244363688281737e-05 3.672163438750431e-05 3.5434877645457163e-05 3.3658372558420524e-05 3.2242900488199666e-05 3.445890251896344e-05 3.350648330524564e-05 3.956004366045818e-05 3.5760946047957987e-05 3.9001995901344344e-05 2.187832069466822e-05 2.6605373932397924e-05 2.7947662601945922e-05 2.5365046894876286e-05 2.7039681299356744e-05 1.773753683664836e-05 1.871079257398378e-05 2.8469154131016694e-05 2.2009007807355374e-05 1.7660076991887763e-05 1.954672552528791e-05 1.1190914847247768e-05 -0.00045782007509842515
3.1039333407534286e-05 2.4409780962741934e-05 3.777707024710253e-05 3.5928544093621895e-05 1.67445632541785e-05 3.76923089788761e-05 2.8531485440908e-05 3.665049371193163e-05 2.3518769012298435e-05 3.184949673595838e-05 3.364272561157122e-05 3.742975241038948e-05 3.6158271541353315e-05 3.472185198916122e-05 3.3564840123290196e-05 3.517296863719821e-05 3.410133649595082e-05 4.0761860873317346e-05 3.5982244298793375e-05 3.982304406235926e-05 2.278134343214333e-05 2.685556137294043e-05 2.8333231966826133e-05 2.571643744886387e-05 2.7265868993708864e-05 1.9059767510043457e-05 1.9052882635151036e-05 2.845640483428724e-05 2.2049776816857047e-05 1.7504473362350836e-05 1.9309843992232345e-05 1.1208104297111277e-05 -0.0005862277466803789
3.097389344475232e-05 2.4472079530823976e-05 3.819656922132708e-05 3.695033228723332e-05 1.8052212908514775e-05 3.944495620089583e-05 2.854371450666804e-05 3.765066503547132e-05 2.6005904146586545e-05 3.309486055513844e-05 3.477685822872445e-05 3.80194942408707e-05 3.6720841308124363e-05 3.568048123270273e-05 3.482517058728263e-05 3.5777884477283806e-05 3.4595472243381664e-05 4.169434396317229e-05 3.601981734391302e-05 4.050746429129504e-05 2.3588272597407922e-05 2.703840254980605e-05 2.8605321858776733e-05 2.599612344056368e-05 2.7395739380153827e-05 2.0677050997619517e-05 1.937801243911963e-05 2.8386912163114175e-05 2.1994468625052832e-05 1.7226237105205655e-05 1.9090026398771442e-05 1.1270000868535135e-05 -0.0007079670904204249
3.0721530492883176e-05 2.4440483684884384e-05 3.8464757381007075e-05 3.791179915424436e-05 1.9303006411064416e-05 4.093865572940558e-05 2.8417787689249963e-05 3.850846042041667e-05 2.85600071947556e-05 3.4391159715596586e-05 3.578122777980752e-05 3.845422907033935e-05 3.709266457008198e-05 3.648483834695071e-05 3.5957065847469494e-05 3.624775126809254e-05 3.4968215913977474e-05 4.2334268073318526e-05 3.586156526580453e-05 4.102609455003403e-05 2.425394814054016e-05 2.7146239517605864e-05 2.8743446819134988e-05 2.6177605832344852e-05 2.742164724622853e-05 2.2503018044517376e-05 1.965682349691633e-05 2.8260899853194132e-05 2.1828927856404334e-05 1.6816793504403904e-05 1.889371924335137e-05 1.136429091275204e-05 -0.0008198562427423894
3.0297163903014734e-05 2.4299282813444734e-05 3.853767702821642e-05 3.879695577779785e-05 2.0437202692846768e-05 4.209142207400873e-05 2.814501385728363e-05 3.9162983739515767e-05 3.1039624445838854e-05 3.568162355804816e-05 3.659788490040228e-05 3.870327054755762e-05 3.725097849383019e-05 3.7091693229740486e-05 3.690051380544901e-05 3.6563815228873864e-05 3.5205146559746936e-05 4.2660529288696125e-05 3.550093242665753e-05 4.135157723794691e-05 2.4738315914873965e-05 2.7171719921170734e-05 2.8732025384670123e-05 2.6238181817461737e-05 2.7339910957380198e-05 2.4435230443486944e-05 1.9860759493894875e-05 2.8080867195967585e-05 2.1543592083617114e-05 1.6274358131340705e-05 1.87272689800011e-05 1.1476841791591141e-05 -0.0009192612487822771
2.9730457754340023e-05 2.4040238713496365e-05 3.838466727756895e-05 3.959251625929028e-05 2.1400428522611037e-05 4.2843024857575074e-05 2.7726246116799302e-05 3.9566337363794446e-05 3.3315111068077385e-05 3.6907647881889716e-05 3.718221341841854e-05 3.874525646097027e-05 3.718240623129532e-05 3.7467663787538186e-05 3.760823528864421e-05 3.671560625662096e-05 3.529818059178069e-05 4.26560545747634e-05 3.49386282323394e-05 4.146188439335674e-05 2.500910522940103e-05 2.7109719667350873e-05 2.8563592422869988e-05 2.6160954803344794e-05 2.7152200345881283e-05 2.6363826691522263e-05 1.9965300452895463e-05 2.7852487619384192e-05 2.1136089344508946e-05 1.5605228327331133e-05 1.859598523878958e-05 1.159388011728879e-05 -0.0010043395450338721
2.906398003688082e-05 2.3665077605983242e-05 3.799423939199187e-05 4.0291586628882214e-05 2.2151045413920656e-05 4.316219565225765e-05 2.717457027756609e-05 3.9689588447799906e-05 3.528103479766287e-05 3.801331331487745e-05 3.7508230889216065e-05 3.857137562590651e-05 3.688637661980465e-05 3.7593519664369524e-05 3.805079177254811e-05 3.6703113437397406e-05 3.5248289350420237e-05 4.230955528328195e-05 3.418459164095111e-05 4.134370101382956e-05 2.5047449526027776e-05 2.696001683943905e-05 2.824052717187442e-05 2.5939729312085547e-05 2.686796688067261e-05 2.8180074878036976e-05 1.995474667637609e-05 2.7585518182604574e-05 2.0613264496205375e-05 1.4824928257439751e-05 1.8503520550439134e-05 1.170434734376613e-05 -0.0010741783771663904
2.8345710234134458e-05 2.3180713469628245e-05 3.73693292203825e-05 4.088724745088257e-05 2.2657935915049165e-05 4.3043743062298745e-05 2.6509433155297302e-05 3.951994949602522e-05 3.68565451935865e-05 3.8945039705140516e-05 3.756447767955251e-05 3.818252662313171e-05 3.637074041762389e-05 3.746077709365636e-05 3.8212961953831837e-05 3.653368185041472e-05 3.506213761284016e-05 4.1618990508140996e-05 3.3255018934141845e-05 4.099134457646869e-05 2.484435390215367e-05 2.6722884285845794e-05 2.7772130124503747e-05 2.5574096071068197e-05 2.6499699742998928e-05 2.9779197575408034e-05 1.981936839001719e-05 2.728920298977755e-05 1.9987006453447975e-05 1.3954119822301436e-05 1.844886355684139e-05 1.1796981198131107e-05 -0.0011285917134955525
2.7621857952908613e-05 2.2595653717871755e-05 3.6524997995002195e-05 4.13709603890311e-05 2.289836083946284e-05 4.2504816519794986e-05 2.5751862267497927e-05 3.905821358785033e-05 3.798689431278035e-05 3.9654103602515534e-05 3.735178324859589e-05 3.7585487007163465e-05 3.564808503142558e-05 3.706847928697243e-05 3.8091515307314694e-05 3.621749419835396e-05 3.4748831239994615e-05 4.0589176933281124e-05 3.216825280105695e-05 4.0403327147942036e-05 2.4396817025262862e-05 2.6395453460281715e-05 2.7169580789632164e-05 2.5066987291211262e-05 2.6058429284603335e-05 3.106332223978825e-05 1.9552000594558194e-05 2.696888077480253e-05 1.9270595657872036e-05 1.301318025070941e-05 1.8423108485876583e-05 1.185692053695675e-05 -0.0011681878240779042
2.6941312171402387e-05 2.1927657144260593e-05 3.5495293559506536e-05 4.1742569010239094e-05 2.2869422537041828e-05 4.15919057559222e-05 2.493150532245636e-05 3.83269798476249e-05 3.865289545501582e-05 4.01059805881232e-05 3.689129516715184e-05 3.680105510284193e-05 3.474382174317725e-05 3.643200034275651e-05 3.7703808629885316e-05 3.577581810532138e-05 3.4327153116464615e-05 3.92428228224162e-05 3.095240754191764e-05 3.959237801609561e-05 2.3716855139355175e-05 2.5980001737480052e-05 2.6454648832441308e-05 2.4433697035419755e-05 2.5561237634974532e-05 3.1956031307345256e-05 1.9157450878992677e-05 2.6632937078829855e-05 1.8485961845726706e-05 1.2029850040562451e-05 1.8418319086777046e-05 1.1874659321620129e-05 -0.0011943146819248796
2.6344912839704193e-05 2.1196192392380908e-05 3.432490484556183e-05 4.2001654946943745e-05 2.2581689336220734e-05 4.037081089336425e-05 2.4078630303847603e-05 3.7363439332693815e-05 3.8863443478476256e-05 4.0276387153426185e-05 3.621594805736095e-05 3.5856741305906326e-05 3.368858961039223e-05 3.5575965739553794e-05 3.707904397742823e-05 3.5232893424108624e-05 3.3818323572631925e-05 3.7616558984154835e-05 2.9639219064847566e-05 3.857872070511803e-05 2.282496825500857e-05 2.5479434043518268e-05 2.5652536351117305e-05 2.3694581614108756e-05 2.50259163294686e-05 3.2400766940554604e-05 1.8647164324647747e-05 2.6287663786206394e-05 1.7656975614954717e-05 1.1032357178919483e-05 1.84226555575151e-05 1.1841648301924579e-05 -0.001208784873597324
2.5867901058518328e-05 2.0425814000191167e-05 3.307109363959171e-05 4.215379522065632e-05 2.2063071810407564e-05 3.892765744240023e-05 2.3226817575050518e-05 3.621999712777324e-05 3.865767575916834e-05 4.015784725197591e-05 3.5372642742004246e-05 3.479044607956894e-05 3.2521027605980635e-05 3.4536191378720105e-05 3.626009856816381e-05 3.461923188297078e-05 3.3250464184675366e-05 3.5767152439802885e-05 2.8266847948543727e-05 3.73952898371499e-05 2.1754185581812635e-05 2.490103361196816e-05 2.479454269632697e-05 2.287888310092967e-05 2.4473734811181203e-05 3.23684980685357e-05 1.804243765946012e-05 2.594120269350242e-05 1.681325738900341e-05 1.0051393473986536e-05 1.8425525922793895e-05 1.1755098967114463e-05 -0.0012136368313804269
2.5540146452840418e-05 1.964807051990647e-05 3.180130443070084e-05 4.221207200316712e-05 2.1357376681407914e-05 3.736291182576679e-05 2.2413376427721232e-05 3.496331555652432e-05 3.810183989116922e-05 3.976227162638679e-05 3.44206127920188e-05 3.365021257195622e-05 3.128913522232324e-05 3.336060035508126e-05 3.5302353353472427e-05 3.397132968530059e-05 3.265783016104251e-05 3.377511166036129e-05 2.68816074822098e-05 3.6089233617531136e-05 2.055121149169281e-05 2.4259536075987853e-05 2.391957605141215e-05 2.2026120859663934e-05 2.393088288954459e-05 3.186221147188917e-05 1.7375572497257963e-05 2.5605464543332346e-05 1.599062670720741e-05 9.122596566157881e-06 1.8422288121655583e-05 1.162005810328992e-05 -0.0012109460076317191
2.538308035582304e-05 1.8897570043918677e-05 3.058745278394781e-05 4.2195293644908816e-05 2.052034506050404e-05 3.578327959985472e-05 2.1675872631021775e-05 3.3668991818558425e-05 3.727829971467145e-05 3.911909516318701e-05 3.342584750498645e-05 3.2490417652297765e-05 3.004667451023124e-05 3.210534850950353e-05 3.426841431064531e-05 3.332901542307809e-05 3.207906411262229e-05 3.174371522618458e-05 2.5534665837767534e-05 3.4717209928203374e-05 1.9269336917204782e-05 2.3574966689920984e-05 2.3070242605172098e-05 2.118180964316707e-05 2.3426631742040627e-05 3.0914743547327816e-05 1.668690674705431e-05 2.52949794230517e-05 1.5228509255393874e-05 8.282023372885305e-06 1.8412234567222185e-05 1.1447950782894623e-05 -0.0012025759788230062
2.5404864572919905e-05 1.8207607354270294e-05 2.9498736694222316e-05 4.21231598011218e-05 1.9617818907136098e-05 3.429207208682783e-05 2.104779559886083e-05 3.2413161534350365e-05 3.627878686529584e-05 3.827173713943921e-05 3.245418338337913e-05 3.1366307666758075e-05 2.884647619794123e-05 3.082880357396789e-05 3.3222131605725735e-05 3.273119364166632e-05 3.155133163090795e-05 2.9784414437017404e-05 2.4275730538647622e-05 3.334039865876548e-05 1.7964091966859996e-05 2.2869104213896208e-05 2.2287960746325552e-05 2.0392099031596445e-05 2.2988011551206e-05 2.9583718060166575e-05 1.6018720998545177e-05 2.50230950769037e-05 1.456461632187711e-05 7.563112831121543e-06 1.8396080122329295e-05 1.1253589036641642e-05 -0.001190538052469492
2.5599585569580086e-05 1.7605969333089888e-05 2.8594617106136866e-05 4.201183401164599e-05 1.8713937606662512e-05 3.298035153420642e-05 2.0553730792016722e-05 3.1264433346223086e-05 3.51927665178664e-05 3.727200601133518e-05 3.1563162337988615e-05 3.032767926924862e-05 2.773562664515339e-05 2.9585284210043028e-05 3.22211162711028e-05 3.220889993826859e-05 3.110551188001409e-05 2.8005191779811867e-05 2.3148473701439798e-05 3.201609069947153e-05 1.6689809854142368e-05 2.2162177629070356e-05 2.160710391763132e-05 1.9698347387020476e-05 2.2636930225417018e-05 2.794607644318603e-05 1.5410894775413908e-05 2.4798706363071688e-05 1.403044461767422e-05 6.9926472860970534e-06 1.837372656154912e-05 1.1052511581510771e-05 -0.0011763799702748656
2.594627767393831e-05 1.711216646071989e-05 2.791776933008805e-05 4.1871411667671055e-05 1.78649843292078e-05 3.1916941225063056e-05 2.020651663769968e-05 3.027800630661659e-05 3.409761484363116e-05 3.6175108107272536e-05 3.079685484408401e-05 2.941460297734011e-05 2.6750351025839336e-05 2.842044887074735e-05 3.131198536721058e-05 3.178140468662605e-05 3.0761220841668546e-05 2.6498570150579326e-05 2.2184241970535368e-05 3.079121233895421e-05 1.5494819308514707e-05 2.146964834537357e-05 2.1052021111245267e-05 1.9132912711938843e-05 2.2386488126358017e-05 2.6090690880664624e-05 1.4897263099555857e-05 2.4625303922221065e-05 1.364904164802283e-05 6.588030373677611e-06 1.8343269402976148e-05 1.0857808774744626e-05 -0.0011609545908868313
2.6416091714054346e-05 1.674124359851703e-05 2.7496658731251955e-05 4.170946704107337e-05 1.7122125427704304e-05 3.114993523922749e-05 2.0012101231259294e-05 2.94969850074267e-05 3.306063081254251e-05 3.5041255614487454e-05 3.0188739401637577e-05 2.8660278985626064e-05 2.5920700863935053e-05 2.737444083322771e-05 3.053301406907849e-05 3.146223389194347e-05 3.053156251553446e-05 2.5347213522763923e-05 2.1406682208180428e-05 2.9706769055337645e-05 1.4421897503780201e-05 2.080754165945109e-05 2.064023465209175e-05 1.8721691958489828e-05 2.22457147174282e-05 2.4117684006341733e-05 1.4506431398331188e-05 2.4505952751496807e-05 1.343764870398445e-05 6.3614488681196235e-06 1.8305441699340008e-05 1.0683783330023289e-05 -0.0011447271099314094
2.6979163521900773e-05 1.6505957319168374e-05 2.7346861315891147e-05 4.153411282459274e-05 1.653083563724067e-05 3.0708146368851885e-05 1.9972103473264724e-05 2.8953443688806146e-05 3.213495438103564e-05 3.3932592486962676e-05 2.976202085847035e-05 2.8092199499951676e-05 2.5270188416470774e-05 2.6481886379770003e-05 2.9913895559730008e-05 3.1259194656740874e-05 3.0424656870309263e-05 2.4614655558252707e-05 2.0833076632698067e-05 2.8798423954867758e-05 1.3508908523363061e-05 2.0193732780171558e-05 2.0385123207233846e-05 1.848581996455323e-05 2.2221929611987434e-05 2.213484731328208e-05 1.4262795957620256e-05 2.4445886083412915e-05 1.340997732768301e-05 6.322092303889804e-06 1.8266888218931854e-05 1.0547914826020133e-05 -0.0011277993908151984
2.7597785447142087e-05 1.6408612282248214e-05 2.7461574063636363e-05 4.134457776672207e-05 1.6118921848828904e-05 3.0591210816055536e-05 2.007648981816601e-05 2.8657354050665163e-05 3.135065708192997e-05 3.290348104201257e-05 2.952086470031645e-05 2.7721480364562012e-05 2.4806908186292276e-05 2.5763127268874086e-05 2.9467033527907915e-05 3.116566585958935e-05 3.0432825951720588e-05 2.4323764591827057e-05 2.0463548935367726e-05 2.8080887204851024e-05 1.2779729331668932e-05 1.9638424419099465e-05 2.028549715760164e-05 1.8431275748298503e-05 2.2311862267088145e-05 2.0245641280780546e-05 1.4176939657772891e-05 2.444463098072447e-05 1.356674783892231e-05 6.468247192970011e-06 1.823111051635351e-05 1.0462390491738915e-05 -0.0011097787646576762
2.8236694561201148e-05 1.6447567759314552e-05 2.7819929528050125e-05 4.11359105783049e-05 1.5902918676147237e-05 3.077748624491505e-05 2.031139229075052e-05 2.860472523025237e-05 3.0721781513420865e-05 3.200410719728097e-05 2.9458280550898053e-05 2.7550951926968992e-05 2.453124398016371e-05 2.523030707379803e-05 2.9196144168963656e-05 3.1169129215413705e-05 3.0542290915036574e-05 2.4465476599289104e-05 2.0288538507884368e-05 2.7556345230550505e-05 1.2251074622326996e-05 1.915173743327614e-05 2.0333838619990274e-05 1.855598748079501e-05 2.250938632641919e-05 1.8548700609244406e-05 1.425163009116659e-05 2.4503118766006082e-05 1.3903764738643076e-05 6.795234185119625e-06 1.820535908336751e-05 1.0439285688335076e-05 -0.0010900781489908695
2.886299444071483e-05 1.661360693105962e-05 2.838386171788443e-05 4.089691356057301e-05 1.5881520084803924e-05 3.1221992685459554e-05 2.0654992113122717e-05 2.87732073047664e-05 3.0241351851145737e-05 3.1271112675312907e-05 2.955170020868536e-05 2.7569889425649308e-05 2.4430190023849718e-05 2.4883271180442534e-05 2.9090575480950065e-05 3.124748764093965e-05 3.072880645049736e-05 2.4990888050524518e-05 2.0284252968849614e-05 2.7209562176722102e-05 1.1924013051611837e-05 1.873749351943843e-05 2.051201772701461e-05 1.8845013983082026e-05 2.280063745274674e-05 1.7127060345956124e-05 1.4475649550149683e-05 2.4619226678623818e-05 1.4406267837330233e-05 7.2903822001535445e-06 1.819482713472098e-05 1.0484763151907828e-05 -0.001067984732799232
2.9444385290844366e-05 1.6887781384866685e-05 2.909769318648614e-05 4.060846913489513e-05 1.60346862685401e-05 3.185772220604122e-05 2.107612817781046e-05 2.9121154511813074e-05 2.9883243769290857e-05 3.0724408134119585e-05 2.976288305944763e-05 2.7751551897381432e-05 2.4476346879964694e-05 2.4706632757443003e-05 2.9124941647751257e-05 3.136778832413256e-05 3.095529609709047e-05 2.58110994764138e-05 2.0411638615769334e-05 2.7005959054804407e-05 1.1781997272919398e-05 1.8390654076938517e-05 2.0789611880900338e-05 1.9268747564638034e-05 2.316220707143657e-05 1.604006865818519e-05 1.4821056538494304e-05 2.4784909328445792e-05 1.5047196939121932e-05 7.93147410149686e-06 1.819897079258226e-05 1.0595726052997634e-05 -0.0010429653339087963
2.995272006955929e-05 1.724363573885057e-05 2.989441782119684e-05 4.024623558507301e-05 1.6326328477589414e-05 3.260422090534121e-05 2.1538648070418276e-05 2.959348785225302e-05 2.9609213015646674e-05 3.036594898730982e-05 3.0043516744626686e-05 2.8057751478627324e-05 2.4631126507301815e-05 2.467291233188007e-05 2.9263215765240602e-05 3.1489045795751736e-05 3.117659434792586e-05 2.6804431399796158e-05 2.062058229057584e-05 2.6896803319687024e-05 1.1795928912761156e-05 1.8100119632435963e-05 2.1127654690644704e-05 1.9786453776760027e-05 2.3564605726278387e-05 1.5322786566684954e-05 1.5246695511450525e-05 2.4988721634144895e-05 1.5790797988302074e-05 8.689233254699502e-06 1.821403748181183e-05 1.0762007150333375e-05 -0.0010146707063540816
3.036831367353443e-05 1.7652972019277513e-05 3.0702678486704826e-05 3.9785998524166644e-05 1.6709020201233216e-05 3.337726593599655e-05 2.2006202925695106e-05 3.0129160222713836e-05 2.9376546081039123e-05 3.0183609851519577e-05 3.034281326108612e-05 2.8444346753531136e-05 2.4850727641023695e-05 2.474814209563192e-05 2.9464576073223725e-05 3.156968523398973e-05 3.134522194159217e-05 2.7825084544019774e-05 2.0855504772043787e-05 2.6825826353160664e-05 1.192731815535808e-05 1.7852527889772318e-05 2.1484969693119638e-05 2.035228317254223e-05 2.3976919692358933e-05 1.4986519090598449e-05 1.5704481484135613e-05 2.521936949051451e-05 1.6597337889834307e-05 9.531814612273593e-06 1.8234717572340742e-05 1.0969831237161998e-05 -0.0009829195914790034
3.0682091164635494e-05 1.8089080185745843e-05 3.145397568005137e-05 3.9207629015436396e-05 1.7131878848886117e-05 3.409726559766568e-05 2.244668939965777e-05 3.0667953978991136e-05 2.9148917747079395e-05 3.0156246793922037e-05 3.0613202397944406e-05 2.886679067160003e-05 2.5091987481573597e-05 2.4897912226151675e-05 2.968929402413778e-05 3.157199898851104e-05 3.141770503134467e-05 2.871931610570755e-05 2.1063649910502136e-05 2.673657945706509e-05 1.2133686141169164e-05 1.7635706171859056e-05 2.1823228962603025e-05 2.092144677590113e-05 2.4371267500100657e-05 1.5021862964204047e-05 1.6144889741553925e-05 2.5468007152085193e-05 1.7427861166652292e-05 1.042859184963163e-05 1.8255625036545098e-05 1.1203589565411676e-05 -0.0009480006992816925
3.089863093919121e-05 1.853005596785806e-05 3.209098940715194e-05 3.850126813631505e-05 1.754544791765511e-05 3.469894363661297e-05 2.2836293283035047e-05 3.115761137451045e-05 2.8899963581352495e-05 3.025697333214339e-05 3.081609247601591e-05 2.92850163532421e-05 2.5317369363619946e-05 2.5091330826398917e-05 2.9903419999754988e-05 3.1468120141653344e-05 3.136019586236216e-05 2.9341894332901575e-05 2.1200083210715093e-05 2.6580490157357417e-05 1.237380456586834e-05 1.7442040189052932e-05 2.2111640646471642e-05 2.1454492525663227e-05 2.472668347763829e-05 1.5402096323668957e-05 1.6521393263246864e-05 2.573114943515975e-05 1.8248871128889732e-05 1.1354488378856331e-05 1.8276021364727058e-05 1.1448587429185864e-05 -0.0009105923818424344
3.1028328521642834e-05 1.895577042887453e-05 3.256487616454251e-05 3.766193185583688e-05 1.789919042494148e-05 3.512927651172504e-05 2.3155283997766674e-05 3.155146259814501e-05 2.8611206289497204e-05 3.044812365260441e-05 3.091958205914125e-05 2.9660384825547226e-05 2.5491606720606796e-05 2.5296967578469776e-05 3.0075449103605933e-05 3.123460555798374e-05 3.11438379867468e-05 2.9560411348938942e-05 2.1225656382739544e-05 2.6314774004276842e-05 1.2602960850927047e-05 1.7263182598981075e-05 2.2323400116874836e-05 2.191474959545303e-05 2.5024579372256994e-05 1.607937338121701e-05 1.678881744737737e-05 2.600609695946332e-05 1.9027858797926456e-05 1.228470318892505e-05 1.8294555047759786e-05 1.1688563972711563e-05 -0.0008717289892956614
3.1082527129910886e-05 1.9344081010785885e-05 3.283544720034115e-05 3.6689329135697335e-05 1.8142858607461676e-05 3.534966162987985e-05 2.3384976884699427e-05 3.180879139108583e-05 2.8270915208850056e-05 3.0682891519973055e-05 3.0897383112460375e-05 2.9955539503134787e-05 2.558198139013257e-05 2.5482449927949347e-05 3.017523886228446e-05 3.0852814234094694e-05 3.074540654779412e-05 2.9266986530274153e-05 2.1106652638991363e-05 2.5903491405188106e-05 1.2774242350133136e-05 1.7088108506868593e-05 2.243496237497311e-05 2.2267158783506602e-05 2.524707088014111e-05 1.6985168258543126e-05 1.690407225396484e-05 2.6286608772352338e-05 1.973256075871177e-05 1.3192144251661375e-05 1.83043594006449e-05 1.1902846381417476e-05 -0.0008327231626026332
3.1078750907909125e-05 1.96818418771727e-05 3.2882460800465196e-05 3.55983866029419e-05 1.8240381905343384e-05 3.5346725780982524e-05 2.351826879021246e-05 3.19067039526999e-05 2.7884103474207222e-05 3.0919425626052544e-05 3.074153937632218e-05 3.0146211429382674e-05 2.556986510171555e-05 2.562635563663207e-05 3.0186298317858018e-05 3.0320745281642303e-05 3.0160965252434835e-05 2.840417619154323e-05 2.082959508697968e-05 2.5334547899547033e-05 1.2851917745138053e-05 1.6915293599595316e-05 2.243717790406663e-05 2.2491276467917487e-05 2.538766057114117e-05 1.804520252335351e-05 1.683837763266638e-05 2.6571928174234927e-05 2.0341816707514226e-05 1.4057302905712277e-05 1.8301694581168704e-05 1.2074829101038631e-05 -0.0007951942970976233
3.1032879633130506e-05 1.9958417396992445e-05 3.2700205338187516e-05 3.4411939850542694e-05 1.816447365854401e-05 3.512629700708203e-05 2.355274227738846e-05 3.183479202562012e-05 2.7464477170724422e-05 3.111553087364882e-05 3.045399898837786e-05 3.0215214792406186e-05 2.5445184292038903e-05 2.5712270144140348e-05 3.009854299307335e-05 2.9645927497767843e-05 2.939813566626981e-05 2.6962614356307313e-05 2.039533319475595e-05 2.461434996803291e-05 1.2806645827367902e-05 1.6746678738854825e-05 2.2329340936266817e-05 2.25750536628766e-05 2.5444647690164857e-05 1.917839836096391e-05 1.6574495020904578e-05 2.6860823709284887e-05 2.083959407173097e-05 1.4862484931654762e-05 1.828188032959588e-05 1.2188580512884073e-05 -0.0007607642910443246
3.096068758168258e-05 2.0169190975138918e-05 3.2301308237947524e-05 3.3164953492814675e-05 1.789989801181946e-05 3.4715871152002364e-05 2.3493666958529502e-05 3.1598399800714105e-05 2.7035879611503333e-05 3.1235438655130565e-05 3.005025428137742e-05 3.0157902074279264e-05 2.5210265448549762e-05 2.5732459107530303e-05 2.991128530993592e-05 2.884883178921882e-05 2.8479353204602376e-05 2.4987968572531827e-05 1.982182038773317e-05 2.3769769541104324e-05 1.2620561392395757e-05 1.6589174265391193e-05 2.2121346773928963e-05 2.251850310130976e-05 2.542553011153359e-05 2.0305651560192928e-05 1.6112115190480836e-05 2.7155178031534888e-05 2.1219102563918568e-05 1.5595451259287074e-05 1.8244318198412657e-05 1.2233888810442295e-05 -0.0007305382750928402
3.087993900408037e-05 2.0318171664257534e-05 3.171787830069661e-05 3.190779534634203e-05 1.7450443920097314e-05 3.416468825889751e-05 2.3356080419034697e-05 3.122086127405055e-05 2.663402665348258e-05 3.125783405266702e-05 2.9561204428318888e-05 2.9984152206452563e-05 2.4882907382561825e-05 2.5692193958093412e-05 2.9638698833878152e-05 2.7965605113422498e-05 2.7446109015727416e-05 2.2583295503864065e-05 1.9147626517224126e-05 2.2851541871204972e-05 1.229351073561702e-05 1.645861084398348e-05 2.183687138312962e-05 2.2336824258673005e-05 2.534819213906303e-05 2.1357336663641036e-05 1.547059764561709e-05 2.7461401259643026e-05 2.1486312107299455e-05 1.6252295608865097e-05 1.8193475625594147e-05 1.2209025953779928e-05 -0.0007054508896544576
3.08064954879228e-05 2.041621701209806e-05 3.0997878639027476e-05 3.0699779017595574e-05 1.6836493159644306e-05 3.353699867147952e-05 2.3162065190263093e-05 3.0740033253096044e-05 2.6300944227841683e-05 3.117375308647752e-05 2.9029395591351204e-05 2.971666253870353e-05 2.449477688060142e-05 2.560692337283399e-05 2.930470509454608e-05 2.704393773456104e-05 2.6353389330324717e-05 1.9906296074623242e-05 1.842853453126736e-05 2.1929859940428287e-05 1.183969925477868e-05 1.6379157386836596e-05 2.1511350496439263e-05 2.205812961619813e-05 2.5238579837605357e-05 2.2277276002569124e-05 1.4687521797895897e-05 2.7789077648776583e-05 2.165670957765542e-05 1.6835128917591646e-05 1.813841299735941e-05 1.2119876373617444e-05 -0.0006862198351882398
3.0750790756428614e-05 2.0476281861192547e-05 3.019756513822358e-05 2.9604576411657035e-05 1.6091051293187775e-05 3.290443783043884e-05 2.2935431843507104e-05 3.020135045517236e-05 2.6073721528518945e-05 3.098533125012182e-05 2.8501735869213007e-05 2.9385324523900636e-05 2.4084027245407924e-05 2.5497745809843764e-05 2.8938304240000434e-05 2.6136578526347876e-05 2.5264142095693387e-05 1.715497455734294e-05 1.773024814610835e-05 2.1086965716676787e-05 1.1285576874797698e-05 1.6376981875509955e-05 2.1183672288316302e-05 2.171630330849439e-05 2.5126300897682086e-05 2.3023041649139486e-05 1.381390575261321e-05 2.8146254408056848e-05 2.1750980522483587e-05 1.7347971152048558e-05 1.8089036530000158e-05 1.1977282156294677e-05 -0.0006729010492563248
3.0714902095496655e-05 2.0510036847554147e-05 2.937665703939274e-05 2.8684708013315685e-05 1.5253840501827653e-05 3.233694224036299e-05 2.269797732878942e-05 2.9651982913492247e-05 2.5981889848480932e-05 3.0702754884259775e-05 2.802289236569777e-05 2.902275628002826e-05 2.3692340619163588e-05 2.5387542336829938e-05 2.8568771085701883e-05 2.5297891625086777e-05 2.424467857053969e-05 1.4554604604199994e-05 1.712285666144453e-05 2.0408904674695805e-05 1.0666939488146454e-05 1.647685894567985e-05 2.0893417968181893e-05 2.134790520358365e-05 2.5039318643393926e-05 2.356651566515211e-05 1.2910655641462654e-05 2.8537531761685386e-05 2.179073271690868e-05 1.7794218365452252e-05 1.8053691746899858e-05 1.1795294085459318e-05 -0.0006648111157119274
